SpectraSuite Data File
++++++++++++++++++++++++++++++++++++
Date: Thu Oct 13 11:19:58 CDT 2011
User: Helimak
Dark Spectrum Present: No
Reference Spectrum Present: No
Number of Sampled Component Spectra: 1
Spectrometers: USB2G37154
Integration Time (usec): 20000 (USB2G37154)
Spectra Averaged: 1 (USB2G37154)
Boxcar Smoothing: 0 (USB2G37154)
Correct for Electrical Dark: No (USB2G37154)
Strobe/Lamp Enabled: No (USB2G37154)
Correct for Detector Non-linearity: No (USB2G37154)
Correct for Stray Light: No (USB2G37154)
Number of Pixels in Processed Spectrum: 651
>>>>>Begin Processed Spectral Data<<<<<
350.00	203.54
351.00	205.09
352.00	200.74
353.00	206.60
354.00	205.39
355.00	202.45
356.00	204.29
357.00	203.19
358.00	203.69
359.00	206.39
360.00	205.99
361.00	204.84
362.00	203.85
363.00	205.26
364.00	202.17
365.00	205.39
366.00	207.85
367.00	208.04
368.00	209.35
369.00	215.34
370.00	205.98
371.00	205.52
372.00	204.41
373.00	213.09
374.00	208.58
375.00	212.08
376.00	208.71
377.00	204.66
378.00	209.84
379.00	209.92
380.00	210.72
381.00	212.69
382.00	211.11
383.00	212.94
384.00	214.38
385.00	208.73
386.00	209.98
387.00	212.30
388.00	215.23
389.00	211.43
390.00	219.49
391.00	219.78
392.00	214.88
393.00	218.79
394.00	221.63
395.00	216.86
396.00	221.97
397.00	217.12
398.00	218.99
399.00	221.91
400.00	222.97
401.00	224.83
402.00	225.86
403.00	231.79
404.00	226.93
405.00	230.91
406.00	234.01
407.00	234.92
408.00	233.41
409.00	234.15
410.00	233.65
411.00	235.17
412.00	233.92
413.00	235.87
414.00	239.57
415.00	236.16
416.00	246.03
417.00	244.28
418.00	245.39
419.00	244.12
420.00	252.13
421.00	252.45
422.00	252.62
423.00	256.28
424.00	260.36
425.00	261.88
426.00	266.30
427.00	265.96
428.00	271.11
429.00	275.58
430.00	277.51
431.00	278.11
432.00	277.65
433.00	277.60
434.00	278.11
435.00	279.71
436.00	281.83
437.00	283.52
438.00	273.31
439.00	284.46
440.00	289.51
441.00	286.27
442.00	287.66
443.00	290.66
444.00	292.75
445.00	296.21
446.00	300.03
447.00	303.61
448.00	303.98
449.00	314.98
450.00	311.37
451.00	321.15
452.00	325.01
453.00	336.82
454.00	338.63
455.00	344.86
456.00	351.99
457.00	357.82
458.00	360.79
459.00	365.27
460.00	365.28
461.00	366.50
462.00	372.27
463.00	368.83
464.00	372.03
465.00	364.64
466.00	370.82
467.00	369.81
468.00	373.82
469.00	380.29
470.00	377.23
471.00	379.46
472.00	378.32
473.00	381.85
474.00	391.45
475.00	405.84
476.00	409.95
477.00	425.94
478.00	421.00
479.00	435.44
480.00	446.05
481.00	449.72
482.00	464.25
483.00	473.37
484.00	482.07
485.00	509.58
486.00	520.71
487.00	541.70
488.00	546.40
489.00	572.89
490.00	581.20
491.00	591.42
492.00	606.06
493.00	608.83
494.00	633.61
495.00	636.05
496.00	650.20
497.00	649.26
498.00	660.80
499.00	654.96
500.00	664.64
501.00	672.73
502.00	679.99
503.00	659.80
504.00	674.04
505.00	681.40
506.00	686.35
507.00	679.43
508.00	685.23
509.00	680.41
510.00	687.62
511.00	715.09
512.00	702.28
513.00	708.94
514.00	716.89
515.00	720.55
516.00	744.89
517.00	745.28
518.00	757.80
519.00	780.41
520.00	782.56
521.00	820.32
522.00	802.09
523.00	823.17
524.00	846.75
525.00	858.45
526.00	871.99
527.00	885.08
528.00	905.87
529.00	929.55
530.00	948.48
531.00	976.10
532.00	999.50
533.00	1001.35
534.00	1017.25
535.00	1032.36
536.00	1057.48
537.00	1072.19
538.00	1070.93
539.00	1098.66
540.00	1098.12
541.00	1106.42
542.00	1119.94
543.00	1115.84
544.00	1125.74
545.00	1114.01
546.00	1128.78
547.00	1118.57
548.00	1122.19
549.00	1135.73
550.00	1102.00
551.00	1125.00
552.00	1113.39
553.00	1109.11
554.00	1126.89
555.00	1131.06
556.00	1148.74
557.00	1141.88
558.00	1148.83
559.00	1151.42
560.00	1163.60
561.00	1183.92
562.00	1200.69
563.00	1214.27
564.00	1222.24
565.00	1232.10
566.00	1242.79
567.00	1237.48
568.00	1250.80
569.00	1271.19
570.00	1267.84
571.00	1317.48
572.00	1313.65
573.00	1320.13
574.00	1355.09
575.00	1341.10
576.00	1379.87
577.00	1417.13
578.00	1415.65
579.00	1436.75
580.00	1440.38
581.00	1468.62
582.00	1455.46
583.00	1480.83
584.00	1494.13
585.00	1471.41
586.00	1471.16
587.00	1497.03
588.00	1483.44
589.00	1493.04
590.00	1487.57
591.00	1505.42
592.00	1475.12
593.00	1500.84
594.00	1480.09
595.00	1498.90
596.00	1481.66
597.00	1492.28
598.00	1476.35
599.00	1475.61
600.00	1495.49
601.00	1482.44
602.00	1461.46
603.00	1486.28
604.00	1469.96
605.00	1472.32
606.00	1469.06
607.00	1480.38
608.00	1475.46
609.00	1465.99
610.00	1462.77
611.00	1482.36
612.00	1493.37
613.00	1480.65
614.00	1502.48
615.00	1508.62
616.00	1504.96
617.00	1521.96
618.00	1531.83
619.00	1518.21
620.00	1518.90
621.00	1517.21
622.00	1541.82
623.00	1571.31
624.00	1555.68
625.00	1575.18
626.00	1573.90
627.00	1604.28
628.00	1580.46
629.00	1605.03
630.00	1607.66
631.00	1637.20
632.00	1620.99
633.00	1608.83
634.00	1615.29
635.00	1592.63
636.00	1610.88
637.00	1600.72
638.00	1625.36
639.00	1630.59
640.00	1623.30
641.00	1633.19
642.00	1612.93
643.00	1597.51
644.00	1594.53
645.00	1594.15
646.00	1565.44
647.00	1571.73
648.00	1558.56
649.00	1542.95
650.00	1556.80
651.00	1531.49
652.00	1516.75
653.00	1509.13
654.00	1486.62
655.00	1490.27
656.00	1465.84
657.00	1458.97
658.00	1466.01
659.00	1458.42
660.00	1444.26
661.00	1412.79
662.00	1409.95
663.00	1434.36
664.00	1399.33
665.00	1408.12
666.00	1398.37
667.00	1391.38
668.00	1376.60
669.00	1361.75
670.00	1378.56
671.00	1363.65
672.00	1347.68
673.00	1367.97
674.00	1366.35
675.00	1357.49
676.00	1348.01
677.00	1355.18
678.00	1335.60
679.00	1335.05
680.00	1333.17
681.00	1328.49
682.00	1349.36
683.00	1317.87
684.00	1337.73
685.00	1348.90
686.00	1317.34
687.00	1331.61
688.00	1331.81
689.00	1340.24
690.00	1339.78
691.00	1345.87
692.00	1348.61
693.00	1355.16
694.00	1366.51
695.00	1349.05
696.00	1344.00
697.00	1358.25
698.00	1368.73
699.00	1351.55
700.00	1349.09
701.00	1338.30
702.00	1350.01
703.00	1337.69
704.00	1321.12
705.00	1327.04
706.00	1322.51
707.00	1317.03
708.00	1334.20
709.00	1327.59
710.00	1310.18
711.00	1313.49
712.00	1295.31
713.00	1276.66
714.00	1274.33
715.00	1260.35
716.00	1256.78
717.00	1252.00
718.00	1225.58
719.00	1224.01
720.00	1208.65
721.00	1174.01
722.00	1164.59
723.00	1151.35
724.00	1151.21
725.00	1133.50
726.00	1106.76
727.00	1103.62
728.00	1095.09
729.00	1099.01
730.00	1099.72
731.00	1079.59
732.00	1080.39
733.00	1070.62
734.00	1044.59
735.00	1054.42
736.00	1040.79
737.00	1024.91
738.00	1030.20
739.00	1023.24
740.00	1027.13
741.00	1009.01
742.00	982.00
743.00	981.58
744.00	979.02
745.00	969.76
746.00	951.06
747.00	951.96
748.00	943.63
749.00	932.63
750.00	926.60
751.00	906.62
752.00	918.74
753.00	914.39
754.00	898.38
755.00	903.31
756.00	890.51
757.00	878.22
758.00	879.25
759.00	888.61
760.00	881.14
761.00	863.36
762.00	878.76
763.00	846.87
764.00	848.10
765.00	860.28
766.00	850.18
767.00	842.53
768.00	829.47
769.00	827.89
770.00	830.46
771.00	814.70
772.00	826.04
773.00	824.02
774.00	825.63
775.00	800.60
776.00	786.87
777.00	798.63
778.00	778.11
779.00	787.67
780.00	781.25
781.00	782.61
782.00	780.67
783.00	787.67
784.00	786.25
785.00	782.41
786.00	785.60
787.00	764.18
788.00	801.41
789.00	807.99
790.00	798.30
791.00	800.67
792.00	795.10
793.00	809.91
794.00	819.41
795.00	809.87
796.00	810.84
797.00	795.40
798.00	814.16
799.00	817.24
800.00	808.90
801.00	805.78
802.00	803.54
803.00	800.43
804.00	780.65
805.00	784.89
806.00	780.61
807.00	782.60
808.00	778.45
809.00	776.00
810.00	768.33
811.00	758.42
812.00	747.06
813.00	757.67
814.00	731.80
815.00	733.07
816.00	723.76
817.00	722.27
818.00	715.40
819.00	702.05
820.00	693.01
821.00	680.96
822.00	674.47
823.00	680.18
824.00	669.39
825.00	657.62
826.00	659.17
827.00	635.88
828.00	646.20
829.00	621.45
830.00	613.74
831.00	611.66
832.00	610.55
833.00	603.36
834.00	594.88
835.00	596.42
836.00	579.73
837.00	573.70
838.00	570.89
839.00	573.13
840.00	562.98
841.00	549.13
842.00	544.53
843.00	535.86
844.00	553.82
845.00	542.04
846.00	534.97
847.00	517.63
848.00	519.21
849.00	505.51
850.00	504.30
851.00	510.86
852.00	495.43
853.00	484.96
854.00	473.31
855.00	479.47
856.00	479.41
857.00	480.57
858.00	475.08
859.00	474.08
860.00	470.29
861.00	463.71
862.00	456.01
863.00	460.53
864.00	460.83
865.00	444.55
866.00	447.09
867.00	437.70
868.00	446.96
869.00	440.93
870.00	430.45
871.00	428.35
872.00	424.79
873.00	426.03
874.00	412.49
875.00	415.58
876.00	407.88
877.00	410.87
878.00	410.16
879.00	400.04
880.00	394.92
881.00	389.79
882.00	390.06
883.00	395.43
884.00	387.00
885.00	392.37
886.00	382.24
887.00	380.54
888.00	378.02
889.00	373.24
890.00	374.66
891.00	383.02
892.00	369.06
893.00	365.52
894.00	369.00
895.00	367.76
896.00	373.31
897.00	364.08
898.00	371.55
899.00	362.96
900.00	359.55
901.00	364.92
902.00	360.54
903.00	366.19
904.00	373.17
905.00	368.07
906.00	368.44
907.00	366.69
908.00	365.18
909.00	362.39
910.00	365.99
911.00	361.18
912.00	361.09
913.00	361.99
914.00	351.60
915.00	364.52
916.00	364.70
917.00	354.31
918.00	350.45
919.00	356.94
920.00	353.80
921.00	349.52
922.00	345.55
923.00	341.24
924.00	340.46
925.00	335.49
926.00	337.02
927.00	336.26
928.00	326.65
929.00	324.07
930.00	324.83
931.00	320.08
932.00	314.79
933.00	308.30
934.00	303.46
935.00	298.72
936.00	293.63
937.00	289.07
938.00	285.05
939.00	272.60
940.00	266.85
941.00	260.57
942.00	256.09
943.00	248.25
944.00	245.61
945.00	248.84
946.00	242.65
947.00	244.90
948.00	241.81
949.00	244.90
950.00	243.26
951.00	242.85
952.00	246.92
953.00	240.50
954.00	241.56
955.00	242.45
956.00	240.95
957.00	246.77
958.00	248.50
959.00	247.99
960.00	241.83
961.00	246.38
962.00	242.52
963.00	239.87
964.00	244.20
965.00	239.33
966.00	242.04
967.00	242.09
968.00	242.97
969.00	242.72
970.00	238.13
971.00	241.79
972.00	237.79
973.00	240.17
974.00	240.99
975.00	233.19
976.00	232.28
977.00	235.77
978.00	231.47
979.00	230.01
980.00	236.45
981.00	231.39
982.00	232.14
983.00	230.58
984.00	225.84
985.00	225.00
986.00	228.74
987.00	227.03
988.00	224.71
989.00	225.26
990.00	222.47
991.00	216.75
992.00	225.20
993.00	220.79
994.00	218.97
995.00	219.51
996.00	224.05
997.00	215.62
998.00	216.61
999.00	217.99
1000.00	216.58
>>>>>End Processed Spectral Data<<<<<
