SpectraSuite Data File
++++++++++++++++++++++++++++++++++++
Date: Thu Oct 13 11:15:51 CDT 2011
User: Helimak
Dark Spectrum Present: No
Reference Spectrum Present: No
Number of Sampled Component Spectra: 1
Spectrometers: USB2G37154
Integration Time (usec): 20000 (USB2G37154)
Spectra Averaged: 1 (USB2G37154)
Boxcar Smoothing: 0 (USB2G37154)
Correct for Electrical Dark: No (USB2G37154)
Strobe/Lamp Enabled: No (USB2G37154)
Correct for Detector Non-linearity: No (USB2G37154)
Correct for Stray Light: No (USB2G37154)
Number of Pixels in Processed Spectrum: 651
>>>>>Begin Processed Spectral Data<<<<<
350.00	199.96
351.00	198.83
352.00	200.98
353.00	202.75
354.00	203.91
355.00	200.97
356.00	205.88
357.00	198.55
358.00	200.97
359.00	204.04
360.00	203.94
361.00	206.59
362.00	206.76
363.00	203.08
364.00	204.15
365.00	201.66
366.00	203.76
367.00	206.89
368.00	203.50
369.00	204.49
370.00	201.00
371.00	204.04
372.00	202.79
373.00	204.64
374.00	206.18
375.00	208.18
376.00	203.26
377.00	202.95
378.00	205.00
379.00	208.26
380.00	201.50
381.00	203.48
382.00	203.36
383.00	205.81
384.00	206.55
385.00	207.37
386.00	204.03
387.00	206.58
388.00	205.65
389.00	204.92
390.00	205.45
391.00	206.07
392.00	202.51
393.00	206.99
394.00	202.89
395.00	205.31
396.00	203.94
397.00	203.70
398.00	204.07
399.00	206.32
400.00	204.42
401.00	205.78
402.00	204.42
403.00	206.00
404.00	202.70
405.00	201.89
406.00	205.99
407.00	205.82
408.00	203.62
409.00	206.91
410.00	205.33
411.00	203.11
412.00	204.19
413.00	206.89
414.00	203.33
415.00	205.07
416.00	201.31
417.00	202.74
418.00	205.50
419.00	206.29
420.00	207.98
421.00	205.37
422.00	209.33
423.00	206.35
424.00	204.34
425.00	207.01
426.00	205.94
427.00	204.95
428.00	201.61
429.00	205.07
430.00	208.28
431.00	207.38
432.00	204.75
433.00	205.04
434.00	207.93
435.00	206.28
436.00	208.41
437.00	204.98
438.00	206.15
439.00	204.50
440.00	203.58
441.00	207.98
442.00	203.77
443.00	202.97
444.00	203.10
445.00	205.14
446.00	203.73
447.00	206.40
448.00	204.48
449.00	205.03
450.00	202.66
451.00	205.35
452.00	207.63
453.00	206.46
454.00	204.94
455.00	207.51
456.00	205.15
457.00	205.94
458.00	204.42
459.00	204.55
460.00	205.23
461.00	203.88
462.00	205.78
463.00	207.56
464.00	207.72
465.00	202.87
466.00	204.61
467.00	203.89
468.00	205.07
469.00	207.95
470.00	204.25
471.00	204.95
472.00	206.55
473.00	203.46
474.00	203.39
475.00	205.63
476.00	202.12
477.00	205.80
478.00	205.40
479.00	204.26
480.00	208.70
481.00	205.08
482.00	203.97
483.00	212.78
484.00	205.55
485.00	206.15
486.00	209.74
487.00	205.77
488.00	208.04
489.00	209.94
490.00	210.01
491.00	204.68
492.00	207.05
493.00	205.87
494.00	209.44
495.00	207.45
496.00	205.30
497.00	205.93
498.00	205.69
499.00	208.97
500.00	207.81
501.00	206.28
502.00	206.00
503.00	202.57
504.00	206.16
505.00	205.12
506.00	197.25
507.00	204.35
508.00	204.95
509.00	203.85
510.00	201.91
511.00	205.01
512.00	204.76
513.00	203.32
514.00	207.53
515.00	203.11
516.00	203.98
517.00	203.54
518.00	203.38
519.00	202.41
520.00	201.18
521.00	205.70
522.00	203.52
523.00	204.33
524.00	206.21
525.00	202.04
526.00	208.78
527.00	201.43
528.00	203.34
529.00	205.13
530.00	202.98
531.00	209.47
532.00	204.99
533.00	205.86
534.00	206.05
535.00	207.98
536.00	204.77
537.00	209.74
538.00	206.11
539.00	209.49
540.00	208.02
541.00	212.02
542.00	216.31
543.00	210.70
544.00	214.19
545.00	217.92
546.00	216.26
547.00	210.22
548.00	206.76
549.00	206.86
550.00	205.45
551.00	204.01
552.00	209.13
553.00	201.44
554.00	206.80
555.00	206.56
556.00	204.39
557.00	199.13
558.00	203.96
559.00	201.98
560.00	203.31
561.00	205.77
562.00	202.94
563.00	204.95
564.00	200.92
565.00	204.46
566.00	203.27
567.00	205.24
568.00	203.20
569.00	201.72
570.00	207.48
571.00	203.57
572.00	204.85
573.00	203.78
574.00	206.98
575.00	200.86
576.00	206.35
577.00	204.82
578.00	203.90
579.00	204.41
580.00	202.32
581.00	209.04
582.00	209.38
583.00	208.08
584.00	206.90
585.00	204.00
586.00	208.48
587.00	210.98
588.00	205.21
589.00	206.37
590.00	203.36
591.00	201.23
592.00	202.72
593.00	201.13
594.00	202.01
595.00	204.13
596.00	202.70
597.00	203.92
598.00	202.06
599.00	205.45
600.00	205.38
601.00	202.97
602.00	206.30
603.00	207.11
604.00	201.43
605.00	205.47
606.00	202.96
607.00	204.26
608.00	203.10
609.00	204.92
610.00	208.30
611.00	220.24
612.00	216.57
613.00	213.29
614.00	209.18
615.00	210.04
616.00	211.97
617.00	203.99
618.00	202.80
619.00	208.32
620.00	203.35
621.00	201.78
622.00	208.38
623.00	203.20
624.00	200.36
625.00	203.09
626.00	207.05
627.00	206.89
628.00	205.70
629.00	204.29
630.00	203.48
631.00	204.46
632.00	207.83
633.00	204.13
634.00	201.60
635.00	202.07
636.00	202.71
637.00	204.79
638.00	201.95
639.00	203.08
640.00	208.70
641.00	203.30
642.00	207.29
643.00	202.94
644.00	202.19
645.00	205.11
646.00	204.04
647.00	202.39
648.00	202.74
649.00	202.67
650.00	202.40
651.00	202.74
652.00	204.80
653.00	206.98
654.00	205.88
655.00	203.28
656.00	204.06
657.00	205.99
658.00	204.00
659.00	202.35
660.00	204.83
661.00	204.42
662.00	203.56
663.00	203.31
664.00	202.21
665.00	203.35
666.00	201.15
667.00	201.55
668.00	202.11
669.00	202.45
670.00	204.00
671.00	205.89
672.00	202.12
673.00	204.00
674.00	201.79
675.00	204.36
676.00	204.04
677.00	206.64
678.00	203.04
679.00	204.88
680.00	202.53
681.00	205.10
682.00	207.35
683.00	202.86
684.00	208.32
685.00	205.86
686.00	205.02
687.00	204.59
688.00	203.86
689.00	204.24
690.00	203.83
691.00	204.80
692.00	199.16
693.00	202.87
694.00	203.94
695.00	203.16
696.00	206.00
697.00	203.04
698.00	200.92
699.00	198.05
700.00	204.23
701.00	205.24
702.00	202.23
703.00	207.23
704.00	200.85
705.00	203.11
706.00	204.17
707.00	202.87
708.00	202.33
709.00	204.97
710.00	193.36
711.00	202.09
712.00	204.05
713.00	204.30
714.00	202.50
715.00	202.60
716.00	204.85
717.00	203.42
718.00	204.74
719.00	204.82
720.00	204.04
721.00	200.81
722.00	202.71
723.00	205.44
724.00	201.84
725.00	209.41
726.00	204.06
727.00	206.52
728.00	204.04
729.00	204.56
730.00	203.59
731.00	202.68
732.00	201.66
733.00	201.51
734.00	202.51
735.00	202.34
736.00	204.82
737.00	203.05
738.00	202.77
739.00	203.95
740.00	201.72
741.00	205.00
742.00	201.96
743.00	201.97
744.00	200.51
745.00	204.67
746.00	199.34
747.00	204.70
748.00	207.09
749.00	204.51
750.00	204.38
751.00	198.67
752.00	199.80
753.00	204.64
754.00	198.70
755.00	201.64
756.00	201.39
757.00	204.74
758.00	200.90
759.00	199.20
760.00	200.36
761.00	199.95
762.00	204.84
763.00	207.20
764.00	204.00
765.00	205.01
766.00	203.22
767.00	192.18
768.00	202.04
769.00	202.73
770.00	200.02
771.00	199.61
772.00	201.68
773.00	206.26
774.00	204.79
775.00	201.57
776.00	206.35
777.00	202.65
778.00	210.01
779.00	200.67
780.00	205.73
781.00	203.26
782.00	204.92
783.00	201.37
784.00	203.14
785.00	200.92
786.00	201.03
787.00	202.83
788.00	206.85
789.00	200.03
790.00	201.38
791.00	203.40
792.00	203.21
793.00	202.58
794.00	205.33
795.00	197.72
796.00	204.59
797.00	202.96
798.00	206.10
799.00	201.96
800.00	205.93
801.00	203.47
802.00	205.58
803.00	201.84
804.00	202.42
805.00	201.43
806.00	203.90
807.00	206.12
808.00	202.15
809.00	207.38
810.00	200.22
811.00	204.99
812.00	203.23
813.00	202.23
814.00	205.98
815.00	199.25
816.00	203.31
817.00	204.05
818.00	203.44
819.00	205.46
820.00	203.55
821.00	202.01
822.00	202.82
823.00	199.56
824.00	203.01
825.00	206.62
826.00	204.48
827.00	200.92
828.00	203.13
829.00	203.89
830.00	202.30
831.00	199.47
832.00	205.07
833.00	204.92
834.00	205.28
835.00	206.59
836.00	202.36
837.00	201.41
838.00	201.22
839.00	203.85
840.00	200.65
841.00	201.44
842.00	206.02
843.00	203.98
844.00	203.23
845.00	207.96
846.00	201.86
847.00	201.08
848.00	204.99
849.00	204.60
850.00	204.14
851.00	203.03
852.00	205.02
853.00	207.07
854.00	202.77
855.00	205.52
856.00	205.79
857.00	203.54
858.00	206.33
859.00	204.07
860.00	206.36
861.00	202.60
862.00	202.57
863.00	204.09
864.00	204.97
865.00	202.43
866.00	202.12
867.00	205.57
868.00	199.97
869.00	200.44
870.00	202.22
871.00	204.60
872.00	206.80
873.00	202.87
874.00	206.41
875.00	205.95
876.00	204.57
877.00	203.50
878.00	206.67
879.00	206.75
880.00	202.95
881.00	201.39
882.00	201.34
883.00	201.01
884.00	207.00
885.00	205.11
886.00	206.26
887.00	203.30
888.00	201.24
889.00	204.49
890.00	202.85
891.00	203.78
892.00	204.25
893.00	205.76
894.00	202.60
895.00	205.10
896.00	202.87
897.00	199.10
898.00	205.01
899.00	204.09
900.00	204.83
901.00	202.17
902.00	202.11
903.00	201.96
904.00	200.07
905.00	203.87
906.00	204.59
907.00	202.28
908.00	203.85
909.00	200.75
910.00	198.98
911.00	202.68
912.00	201.78
913.00	198.42
914.00	195.67
915.00	201.60
916.00	205.80
917.00	206.06
918.00	199.08
919.00	203.49
920.00	198.43
921.00	201.39
922.00	203.39
923.00	203.88
924.00	205.20
925.00	204.92
926.00	202.00
927.00	206.13
928.00	201.68
929.00	201.16
930.00	204.93
931.00	201.50
932.00	201.20
933.00	207.19
934.00	201.12
935.00	203.93
936.00	204.70
937.00	205.16
938.00	200.86
939.00	207.71
940.00	201.64
941.00	205.51
942.00	206.02
943.00	201.22
944.00	204.83
945.00	203.21
946.00	203.36
947.00	203.05
948.00	205.07
949.00	203.54
950.00	201.03
951.00	205.34
952.00	204.92
953.00	204.56
954.00	203.81
955.00	204.49
956.00	206.42
957.00	202.20
958.00	200.86
959.00	207.00
960.00	204.94
961.00	207.89
962.00	202.10
963.00	203.40
964.00	200.50
965.00	200.68
966.00	203.97
967.00	199.70
968.00	201.02
969.00	202.18
970.00	205.66
971.00	202.85
972.00	202.75
973.00	204.97
974.00	205.30
975.00	202.08
976.00	203.01
977.00	200.29
978.00	203.46
979.00	203.30
980.00	203.61
981.00	202.52
982.00	201.51
983.00	208.29
984.00	202.87
985.00	203.37
986.00	205.83
987.00	207.68
988.00	203.30
989.00	200.03
990.00	206.67
991.00	203.58
992.00	204.96
993.00	203.11
994.00	199.38
995.00	206.15
996.00	200.14
997.00	203.34
998.00	205.05
999.00	201.11
1000.00	202.15
>>>>>End Processed Spectral Data<<<<<
