SpectraSuite Data File
++++++++++++++++++++++++++++++++++++
Date: Thu Oct 13 17:37:49 CDT 2011
User: Helimak
Dark Spectrum Present: No
Reference Spectrum Present: No
Number of Sampled Component Spectra: 1
Spectrometers: USB2G37154
Integration Time (usec): 1000000 (USB2G37154)
Spectra Averaged: 1 (USB2G37154)
Boxcar Smoothing: 0 (USB2G37154)
Correct for Electrical Dark: No (USB2G37154)
Strobe/Lamp Enabled: No (USB2G37154)
Correct for Detector Non-linearity: No (USB2G37154)
Correct for Stray Light: No (USB2G37154)
Number of Pixels in Processed Spectrum: 651
>>>>>Begin Processed Spectral Data<<<<<
350.00	201.43
351.00	207.20
352.00	196.50
353.00	201.85
354.00	208.16
355.00	212.39
356.00	205.21
357.00	194.38
358.00	210.26
359.00	198.48
360.00	201.74
361.00	201.22
362.00	217.68
363.00	200.32
364.00	210.44
365.00	204.99
366.00	202.61
367.00	197.53
368.00	197.50
369.00	201.73
370.00	203.18
371.00	198.49
372.00	205.68
373.00	196.96
374.00	207.45
375.00	223.53
376.00	202.67
377.00	202.42
378.00	218.55
379.00	202.72
380.00	203.56
381.00	200.05
382.00	206.08
383.00	219.39
384.00	203.72
385.00	205.75
386.00	197.98
387.00	206.67
388.00	200.50
389.00	198.99
390.00	198.13
391.00	207.41
392.00	199.59
393.00	201.49
394.00	210.67
395.00	200.07
396.00	201.90
397.00	204.06
398.00	202.01
399.00	208.97
400.00	201.17
401.00	197.52
402.00	204.43
403.00	206.60
404.00	206.27
405.00	205.10
406.00	200.01
407.00	205.15
408.00	203.78
409.00	201.08
410.00	198.16
411.00	198.41
412.00	203.58
413.00	207.72
414.00	205.56
415.00	223.55
416.00	216.47
417.00	213.80
418.00	212.38
419.00	225.74
420.00	221.58
421.00	208.44
422.00	206.25
423.00	203.79
424.00	202.01
425.00	212.65
426.00	216.22
427.00	224.09
428.00	204.44
429.00	206.63
430.00	207.20
431.00	202.13
432.00	230.14
433.00	214.26
434.00	209.79
435.00	212.97
436.00	217.54
437.00	246.01
438.00	208.21
439.00	201.27
440.00	202.47
441.00	212.18
442.00	200.41
443.00	203.35
444.00	202.41
445.00	207.87
446.00	212.81
447.00	209.11
448.00	207.20
449.00	209.02
450.00	210.20
451.00	211.25
452.00	197.08
453.00	207.00
454.00	197.73
455.00	203.78
456.00	209.46
457.00	208.60
458.00	205.77
459.00	200.94
460.00	211.75
461.00	209.32
462.00	210.86
463.00	208.94
464.00	207.22
465.00	234.87
466.00	230.50
467.00	202.30
468.00	207.31
469.00	206.05
470.00	205.02
471.00	203.13
472.00	208.16
473.00	208.93
474.00	211.74
475.00	207.16
476.00	204.42
477.00	199.02
478.00	201.70
479.00	200.43
480.00	208.58
481.00	208.21
482.00	205.00
483.00	204.34
484.00	208.88
485.00	206.99
486.00	212.29
487.00	206.48
488.00	204.63
489.00	207.98
490.00	212.65
491.00	207.62
492.00	215.50
493.00	211.29
494.00	204.33
495.00	200.21
496.00	216.88
497.00	206.27
498.00	203.57
499.00	203.35
500.00	204.75
501.00	204.23
502.00	204.00
503.00	203.88
504.00	211.94
505.00	204.11
506.00	208.80
507.00	213.43
508.00	206.21
509.00	200.60
510.00	207.55
511.00	209.07
512.00	210.68
513.00	206.01
514.00	201.40
515.00	204.18
516.00	206.00
517.00	201.94
518.00	205.55
519.00	212.94
520.00	211.17
521.00	208.25
522.00	211.03
523.00	196.92
524.00	198.13
525.00	214.96
526.00	215.92
527.00	202.94
528.00	204.24
529.00	220.46
530.00	201.85
531.00	201.44
532.00	203.90
533.00	201.02
534.00	202.13
535.00	204.99
536.00	203.74
537.00	205.64
538.00	208.22
539.00	207.16
540.00	204.67
541.00	209.21
542.00	219.86
543.00	223.72
544.00	218.89
545.00	216.29
546.00	223.30
547.00	227.88
548.00	199.17
549.00	204.56
550.00	204.88
551.00	214.14
552.00	206.67
553.00	202.35
554.00	205.50
555.00	204.76
556.00	213.30
557.00	203.93
558.00	208.92
559.00	200.10
560.00	219.58
561.00	214.01
562.00	200.19
563.00	205.89
564.00	208.75
565.00	208.49
566.00	210.62
567.00	212.81
568.00	200.11
569.00	199.01
570.00	233.03
571.00	259.90
572.00	210.81
573.00	228.17
574.00	224.85
575.00	196.93
576.00	203.22
577.00	203.20
578.00	204.09
579.00	204.72
580.00	200.28
581.00	208.30
582.00	209.48
583.00	210.37
584.00	207.30
585.00	209.31
586.00	210.94
587.00	208.18
588.00	206.34
589.00	207.96
590.00	203.07
591.00	208.85
592.00	204.35
593.00	207.86
594.00	206.17
595.00	198.16
596.00	203.35
597.00	206.63
598.00	212.64
599.00	210.97
600.00	201.38
601.00	209.65
602.00	198.26
603.00	213.32
604.00	205.33
605.00	210.02
606.00	203.91
607.00	204.23
608.00	201.84
609.00	203.85
610.00	205.15
611.00	225.89
612.00	216.60
613.00	224.83
614.00	203.33
615.00	207.08
616.00	205.05
617.00	204.93
618.00	228.63
619.00	207.27
620.00	205.39
621.00	221.19
622.00	201.82
623.00	203.58
624.00	203.94
625.00	202.79
626.00	198.58
627.00	199.67
628.00	208.24
629.00	219.48
630.00	201.51
631.00	212.82
632.00	203.78
633.00	207.42
634.00	201.38
635.00	213.11
636.00	212.27
637.00	202.06
638.00	206.80
639.00	207.70
640.00	223.78
641.00	205.43
642.00	210.50
643.00	210.17
644.00	206.29
645.00	205.69
646.00	217.07
647.00	200.48
648.00	200.11
649.00	203.39
650.00	203.03
651.00	198.64
652.00	204.39
653.00	200.81
654.00	210.84
655.00	203.46
656.00	201.25
657.00	206.68
658.00	208.01
659.00	210.21
660.00	205.10
661.00	204.08
662.00	197.29
663.00	198.18
664.00	239.79
665.00	208.75
666.00	204.91
667.00	218.17
668.00	230.95
669.00	204.01
670.00	198.50
671.00	198.33
672.00	204.31
673.00	210.02
674.00	202.16
675.00	211.94
676.00	217.35
677.00	209.53
678.00	206.11
679.00	203.66
680.00	210.89
681.00	222.77
682.00	234.02
683.00	204.66
684.00	243.25
685.00	235.32
686.00	202.07
687.00	207.43
688.00	202.54
689.00	206.61
690.00	200.95
691.00	208.61
692.00	204.07
693.00	203.19
694.00	203.02
695.00	208.07
696.00	331.04
697.00	765.77
698.00	346.98
699.00	240.20
700.00	209.33
701.00	200.82
702.00	205.31
703.00	213.15
704.00	215.14
705.00	206.01
706.00	220.95
707.00	601.11
708.00	337.06
709.00	251.12
710.00	205.56
711.00	204.58
712.00	209.87
713.00	197.36
714.00	206.42
715.00	263.54
716.00	221.84
717.00	207.76
718.00	206.61
719.00	201.90
720.00	205.32
721.00	204.56
722.00	205.92
723.00	208.83
724.00	210.30
725.00	298.52
726.00	202.12
727.00	247.62
728.00	310.42
729.00	236.66
730.00	208.23
731.00	215.21
732.00	207.38
733.00	207.34
734.00	212.80
735.00	207.31
736.00	204.91
737.00	213.05
738.00	315.02
739.00	689.51
740.00	352.76
741.00	245.90
742.00	213.95
743.00	208.98
744.00	203.68
745.00	254.69
746.00	199.96
747.00	203.25
748.00	202.99
749.00	206.90
750.00	295.39
751.00	783.32
752.00	854.61
753.00	423.05
754.00	264.01
755.00	209.64
756.00	202.19
757.00	204.70
758.00	220.85
759.00	226.06
760.00	212.21
761.00	202.19
762.00	221.66
763.00	302.50
764.00	1627.96
765.00	710.60
766.00	374.82
767.00	235.87
768.00	212.52
769.00	209.36
770.00	200.97
771.00	207.64
772.00	263.76
773.00	775.03
774.00	399.78
775.00	302.01
776.00	216.23
777.00	201.10
778.00	208.07
779.00	230.61
780.00	207.11
781.00	198.82
782.00	203.02
783.00	203.17
784.00	205.65
785.00	203.95
786.00	203.88
787.00	212.24
788.00	210.61
789.00	222.01
790.00	214.47
791.00	204.55
792.00	200.42
793.00	202.76
794.00	207.66
795.00	503.02
796.00	492.93
797.00	299.00
798.00	251.36
799.00	214.05
800.00	211.05
801.00	531.24
802.00	971.26
803.00	537.14
804.00	303.56
805.00	225.65
806.00	216.72
807.00	208.43
808.00	220.38
809.00	218.77
810.00	249.29
811.00	767.39
812.00	1775.09
813.00	973.82
814.00	453.67
815.00	289.06
816.00	208.29
817.00	229.70
818.00	205.65
819.00	212.27
820.00	204.80
821.00	201.87
822.00	213.54
823.00	210.03
824.00	203.16
825.00	252.20
826.00	220.64
827.00	488.68
828.00	344.84
829.00	258.76
830.00	220.03
831.00	213.53
832.00	202.70
833.00	205.00
834.00	201.02
835.00	210.94
836.00	208.07
837.00	207.75
838.00	208.35
839.00	201.89
840.00	211.43
841.00	429.42
842.00	507.97
843.00	833.33
844.00	474.43
845.00	307.06
846.00	246.13
847.00	216.99
848.00	200.60
849.00	200.58
850.00	206.41
851.00	202.25
852.00	240.12
853.00	409.27
854.00	266.18
855.00	231.42
856.00	263.31
857.00	209.95
858.00	217.75
859.00	209.54
860.00	202.06
861.00	219.96
862.00	200.28
863.00	199.98
864.00	216.71
865.00	207.77
866.00	207.32
867.00	226.92
868.00	235.03
869.00	213.54
870.00	207.75
871.00	204.45
872.00	208.62
873.00	203.47
874.00	198.54
875.00	204.99
876.00	208.87
877.00	198.36
878.00	202.75
879.00	205.33
880.00	202.26
881.00	199.46
882.00	203.32
883.00	200.15
884.00	199.00
885.00	200.07
886.00	196.78
887.00	214.27
888.00	208.87
889.00	199.16
890.00	208.44
891.00	218.68
892.00	214.23
893.00	202.52
894.00	202.10
895.00	224.99
896.00	202.29
897.00	198.19
898.00	195.18
899.00	197.31
900.00	210.23
901.00	200.33
902.00	203.10
903.00	229.73
904.00	202.68
905.00	200.16
906.00	226.65
907.00	200.29
908.00	200.46
909.00	192.96
910.00	199.75
911.00	206.58
912.00	251.04
913.00	493.27
914.00	373.38
915.00	293.45
916.00	257.84
917.00	231.13
918.00	204.09
919.00	208.77
920.00	204.28
921.00	220.49
922.00	207.69
923.00	271.15
924.00	249.70
925.00	234.34
926.00	218.99
927.00	215.87
928.00	202.18
929.00	203.97
930.00	206.88
931.00	198.54
932.00	201.45
933.00	208.15
934.00	204.24
935.00	194.88
936.00	201.31
937.00	201.96
938.00	215.58
939.00	211.89
940.00	206.44
941.00	205.55
942.00	224.76
943.00	202.02
944.00	199.48
945.00	233.59
946.00	201.22
947.00	203.24
948.00	200.37
949.00	205.55
950.00	206.18
951.00	202.44
952.00	198.15
953.00	207.73
954.00	200.89
955.00	212.12
956.00	201.99
957.00	206.70
958.00	207.71
959.00	204.75
960.00	200.30
961.00	201.62
962.00	205.39
963.00	205.47
964.00	200.99
965.00	200.28
966.00	203.03
967.00	228.36
968.00	223.96
969.00	212.57
970.00	211.37
971.00	216.15
972.00	203.77
973.00	219.42
974.00	199.24
975.00	206.44
976.00	213.00
977.00	199.61
978.00	203.66
979.00	210.27
980.00	204.50
981.00	205.03
982.00	207.11
983.00	219.93
984.00	204.91
985.00	210.73
986.00	200.68
987.00	202.23
988.00	209.56
989.00	202.95
990.00	195.31
991.00	207.09
992.00	200.59
993.00	209.65
994.00	207.78
995.00	204.11
996.00	204.14
997.00	208.83
998.00	204.16
999.00	209.94
1000.00	200.14
>>>>>End Processed Spectral Data<<<<<
