SpectraSuite Data File
++++++++++++++++++++++++++++++++++++
Date: Wed Jan 25 12:38:04 CST 2012
User: Helimak
Dark Spectrum Present: No
Reference Spectrum Present: No
Number of Sampled Component Spectra: 1
Spectrometers: USB2G37154
Integration Time (usec): 500000 (USB2G37154)
Spectra Averaged: 20 (USB2G37154)
Boxcar Smoothing: 0 (USB2G37154)
Correct for Electrical Dark: No (USB2G37154)
Strobe/Lamp Enabled: No (USB2G37154)
Correct for Detector Non-linearity: No (USB2G37154)
Correct for Stray Light: No (USB2G37154)
Number of Pixels in Processed Spectrum: 651
>>>>>Begin Processed Spectral Data<<<<<
350.00	214.49
351.00	217.27
352.00	215.29
353.00	215.13
354.00	217.02
355.00	218.36
356.00	216.76
357.00	214.32
358.00	220.44
359.00	215.92
360.00	217.36
361.00	214.77
362.00	222.82
363.00	215.26
364.00	221.92
365.00	217.96
366.00	216.83
367.00	215.07
368.00	215.97
369.00	216.91
370.00	218.56
371.00	216.35
372.00	218.31
373.00	219.21
374.00	220.90
375.00	226.04
376.00	217.37
377.00	217.11
378.00	224.19
379.00	217.88
380.00	218.37
381.00	217.56
382.00	218.31
383.00	223.22
384.00	217.25
385.00	219.29
386.00	217.16
387.00	219.68
388.00	217.25
389.00	217.35
390.00	217.94
391.00	219.45
392.00	217.79
393.00	218.59
394.00	221.84
395.00	218.08
396.00	218.63
397.00	219.00
398.00	218.03
399.00	218.86
400.00	219.02
401.00	217.04
402.00	220.85
403.00	220.73
404.00	219.82
405.00	221.85
406.00	219.55
407.00	220.26
408.00	220.57
409.00	221.37
410.00	220.31
411.00	220.98
412.00	223.81
413.00	226.36
414.00	225.58
415.00	230.51
416.00	231.57
417.00	235.29
418.00	237.67
419.00	239.45
420.00	243.43
421.00	245.77
422.00	250.69
423.00	252.94
424.00	255.11
425.00	260.36
426.00	262.24
427.00	276.58
428.00	270.22
429.00	272.06
430.00	275.36
431.00	276.00
432.00	288.43
433.00	282.54
434.00	280.51
435.00	282.76
436.00	286.37
437.00	298.06
438.00	285.26
439.00	286.60
440.00	288.03
441.00	290.28
442.00	288.66
443.00	290.43
444.00	292.63
445.00	295.97
446.00	299.92
447.00	299.74
448.00	303.69
449.00	307.64
450.00	308.08
451.00	316.37
452.00	319.19
453.00	325.94
454.00	327.41
455.00	332.38
456.00	339.02
457.00	339.93
458.00	341.95
459.00	342.44
460.00	347.25
461.00	347.34
462.00	351.32
463.00	348.32
464.00	348.66
465.00	358.98
466.00	359.30
467.00	347.40
468.00	350.74
469.00	351.39
470.00	351.72
471.00	354.58
472.00	357.41
473.00	360.91
474.00	366.39
475.00	365.52
476.00	372.47
477.00	377.66
478.00	383.82
479.00	390.20
480.00	399.47
481.00	403.49
482.00	411.66
483.00	420.03
484.00	431.80
485.00	440.99
486.00	452.95
487.00	460.00
488.00	469.62
489.00	482.62
490.00	489.72
491.00	495.77
492.00	506.77
493.00	513.67
494.00	516.71
495.00	520.47
496.00	524.09
497.00	526.15
498.00	527.78
499.00	528.01
500.00	527.55
501.00	527.86
502.00	529.90
503.00	526.84
504.00	530.15
505.00	525.82
506.00	529.87
507.00	532.72
508.00	528.81
509.00	525.13
510.00	526.12
511.00	532.06
512.00	531.69
513.00	530.91
514.00	530.92
515.00	535.12
516.00	536.65
517.00	540.35
518.00	547.15
519.00	552.42
520.00	559.33
521.00	560.16
522.00	566.98
523.00	569.99
524.00	575.79
525.00	585.40
526.00	592.44
527.00	595.57
528.00	605.46
529.00	616.48
530.00	616.86
531.00	621.28
532.00	632.88
533.00	635.68
534.00	645.05
535.00	649.66
536.00	655.07
537.00	657.50
538.00	663.35
539.00	662.94
540.00	661.76
541.00	667.70
542.00	668.33
543.00	666.88
544.00	665.96
545.00	661.15
546.00	658.76
547.00	660.73
548.00	652.36
549.00	648.83
550.00	645.27
551.00	647.04
552.00	644.51
553.00	642.36
554.00	645.15
555.00	641.86
556.00	646.16
557.00	641.06
558.00	639.16
559.00	646.42
560.00	650.64
561.00	652.46
562.00	653.76
563.00	654.13
564.00	658.14
565.00	661.75
566.00	665.28
567.00	674.00
568.00	668.20
569.00	673.48
570.00	688.67
571.00	713.12
572.00	694.21
573.00	705.94
574.00	709.52
575.00	706.66
576.00	712.63
577.00	715.38
578.00	719.65
579.00	730.52
580.00	734.69
581.00	736.56
582.00	742.17
583.00	747.13
584.00	753.10
585.00	750.08
586.00	753.78
587.00	757.77
588.00	751.31
589.00	756.36
590.00	757.37
591.00	754.62
592.00	756.79
593.00	757.03
594.00	761.55
595.00	759.17
596.00	758.67
597.00	754.27
598.00	757.46
599.00	759.27
600.00	757.33
601.00	762.39
602.00	757.52
603.00	763.59
604.00	759.98
605.00	762.90
606.00	763.95
607.00	769.68
608.00	770.25
609.00	769.21
610.00	774.19
611.00	782.42
612.00	786.23
613.00	791.38
614.00	790.93
615.00	792.62
616.00	799.27
617.00	800.12
618.00	813.77
619.00	847.07
620.00	817.87
621.00	827.08
622.00	827.69
623.00	832.70
624.00	839.71
625.00	846.57
626.00	846.60
627.00	856.86
628.00	866.63
629.00	875.84
630.00	871.51
631.00	888.27
632.00	886.11
633.00	885.42
634.00	893.80
635.00	899.68
636.00	904.52
637.00	897.91
638.00	907.03
639.00	903.69
640.00	921.99
641.00	910.72
642.00	903.60
643.00	911.46
644.00	911.37
645.00	904.98
646.00	910.73
647.00	905.38
648.00	899.25
649.00	897.85
650.00	894.81
651.00	893.97
652.00	887.27
653.00	885.79
654.00	884.94
655.00	880.02
656.00	876.39
657.00	873.92
658.00	873.59
659.00	865.57
660.00	864.07
661.00	860.24
662.00	855.52
663.00	859.80
664.00	872.06
665.00	849.26
666.00	852.40
667.00	852.35
668.00	851.62
669.00	836.83
670.00	842.56
671.00	840.45
672.00	836.25
673.00	834.49
674.00	834.55
675.00	831.08
676.00	836.98
677.00	830.23
678.00	833.22
679.00	830.61
680.00	827.71
681.00	835.81
682.00	840.01
683.00	826.02
684.00	846.60
685.00	840.98
686.00	822.87
687.00	826.33
688.00	828.22
689.00	834.52
690.00	832.83
691.00	838.08
692.00	834.87
693.00	834.13
694.00	836.64
695.00	836.83
696.00	842.65
697.00	848.77
698.00	844.93
699.00	846.71
700.00	843.69
701.00	844.96
702.00	846.85
703.00	844.68
704.00	844.66
705.00	843.78
706.00	838.07
707.00	840.36
708.00	833.29
709.00	843.21
710.00	834.19
711.00	826.93
712.00	829.15
713.00	819.03
714.00	816.29
715.00	815.58
716.00	803.54
717.00	799.60
718.00	794.64
719.00	787.04
720.00	781.04
721.00	773.48
722.00	762.51
723.00	758.34
724.00	752.21
725.00	782.01
726.00	733.54
727.00	725.76
728.00	728.19
729.00	722.44
730.00	718.25
731.00	718.64
732.00	712.53
733.00	708.51
734.00	700.30
735.00	700.90
736.00	690.19
737.00	686.70
738.00	689.72
739.00	681.78
740.00	683.20
741.00	672.45
742.00	667.06
743.00	667.49
744.00	657.71
745.00	674.28
746.00	649.37
747.00	648.48
748.00	644.08
749.00	638.43
750.00	632.65
751.00	638.17
752.00	624.82
753.00	630.50
754.00	624.88
755.00	622.36
756.00	618.26
757.00	623.06
758.00	622.84
759.00	626.12
760.00	611.72
761.00	609.63
762.00	613.24
763.00	615.39
764.00	597.27
765.00	598.06
766.00	594.27
767.00	596.22
768.00	592.03
769.00	589.33
770.00	586.71
771.00	587.05
772.00	584.86
773.00	581.93
774.00	580.89
775.00	583.91
776.00	572.78
777.00	572.42
778.00	568.03
779.00	575.10
780.00	563.74
781.00	563.12
782.00	562.11
783.00	563.63
784.00	561.83
785.00	566.10
786.00	566.31
787.00	569.42
788.00	572.23
789.00	578.87
790.00	573.05
791.00	574.50
792.00	576.31
793.00	578.94
794.00	579.09
795.00	580.55
796.00	580.81
797.00	584.03
798.00	587.90
799.00	585.98
800.00	584.10
801.00	581.57
802.00	580.18
803.00	586.63
804.00	574.42
805.00	572.55
806.00	575.70
807.00	570.48
808.00	572.19
809.00	567.61
810.00	563.66
811.00	559.19
812.00	555.88
813.00	552.49
814.00	546.82
815.00	540.33
816.00	536.53
817.00	541.82
818.00	530.19
819.00	529.75
820.00	517.91
821.00	514.08
822.00	514.62
823.00	509.13
824.00	502.24
825.00	513.67
826.00	496.38
827.00	488.64
828.00	484.52
829.00	483.70
830.00	477.55
831.00	475.67
832.00	469.49
833.00	467.94
834.00	459.76
835.00	462.04
836.00	455.56
837.00	450.64
838.00	446.35
839.00	441.77
840.00	441.36
841.00	436.34
842.00	435.35
843.00	435.47
844.00	426.32
845.00	424.52
846.00	417.50
847.00	418.47
848.00	413.21
849.00	408.72
850.00	409.86
851.00	403.62
852.00	403.59
853.00	402.15
854.00	398.16
855.00	394.82
856.00	408.08
857.00	392.51
858.00	392.68
859.00	387.82
860.00	380.97
861.00	388.71
862.00	378.06
863.00	374.58
864.00	379.91
865.00	373.04
866.00	368.70
867.00	367.80
868.00	367.03
869.00	363.85
870.00	358.99
871.00	355.66
872.00	358.56
873.00	355.33
874.00	348.46
875.00	347.83
876.00	348.34
877.00	342.58
878.00	342.51
879.00	338.69
880.00	338.36
881.00	337.16
882.00	337.08
883.00	335.54
884.00	330.80
885.00	331.14
886.00	329.53
887.00	331.12
888.00	325.50
889.00	325.69
890.00	326.56
891.00	330.38
892.00	327.61
893.00	323.13
894.00	322.38
895.00	329.79
896.00	320.50
897.00	318.15
898.00	320.18
899.00	319.61
900.00	322.46
901.00	321.30
902.00	320.04
903.00	331.02
904.00	318.71
905.00	320.70
906.00	328.80
907.00	320.79
908.00	321.64
909.00	317.04
910.00	318.75
911.00	319.56
912.00	319.03
913.00	317.85
914.00	318.74
915.00	315.20
916.00	318.43
917.00	317.49
918.00	312.58
919.00	318.40
920.00	311.41
921.00	314.61
922.00	307.58
923.00	307.84
924.00	303.66
925.00	303.94
926.00	300.74
927.00	298.71
928.00	294.11
929.00	293.12
930.00	292.36
931.00	289.44
932.00	283.35
933.00	284.56
934.00	278.75
935.00	276.68
936.00	273.70
937.00	267.30
938.00	265.89
939.00	262.21
940.00	254.36
941.00	253.28
942.00	253.71
943.00	246.19
944.00	242.78
945.00	252.44
946.00	240.45
947.00	241.35
948.00	239.68
949.00	239.91
950.00	241.17
951.00	243.06
952.00	240.19
953.00	242.17
954.00	238.32
955.00	245.74
956.00	242.34
957.00	243.70
958.00	242.93
959.00	242.70
960.00	242.54
961.00	241.71
962.00	242.83
963.00	241.74
964.00	242.02
965.00	240.25
966.00	239.80
967.00	241.86
968.00	240.58
969.00	238.98
970.00	238.74
971.00	240.27
972.00	238.46
973.00	242.49
974.00	239.71
975.00	236.47
976.00	238.93
977.00	233.26
978.00	235.02
979.00	234.81
980.00	231.54
981.00	231.83
982.00	233.20
983.00	237.35
984.00	230.39
985.00	233.84
986.00	230.37
987.00	229.15
988.00	231.72
989.00	229.75
990.00	225.94
991.00	228.77
992.00	227.14
993.00	229.44
994.00	228.13
995.00	226.48
996.00	225.72
997.00	226.74
998.00	225.49
999.00	226.73
1000.00	222.52
>>>>>End Processed Spectral Data<<<<<
