SpectraSuite Data File
++++++++++++++++++++++++++++++++++++
Date: Thu Oct 13 15:02:57 CDT 2011
User: Helimak
Dark Spectrum Present: No
Reference Spectrum Present: No
Number of Sampled Component Spectra: 1
Spectrometers: USB2G37154
Integration Time (usec): 500000 (USB2G37154)
Spectra Averaged: 1 (USB2G37154)
Boxcar Smoothing: 0 (USB2G37154)
Correct for Electrical Dark: No (USB2G37154)
Strobe/Lamp Enabled: No (USB2G37154)
Correct for Detector Non-linearity: No (USB2G37154)
Correct for Stray Light: No (USB2G37154)
Number of Pixels in Processed Spectrum: 651
>>>>>Begin Processed Spectral Data<<<<<
350.00	199.68
351.00	202.52
352.00	201.90
353.00	202.63
354.00	204.98
355.00	208.64
356.00	209.08
357.00	206.18
358.00	223.17
359.00	212.02
360.00	218.00
361.00	209.56
362.00	222.67
363.00	216.38
364.00	223.06
365.00	215.23
366.00	213.11
367.00	221.79
368.00	222.42
369.00	226.18
370.00	229.10
371.00	227.88
372.00	235.09
373.00	226.88
374.00	227.34
375.00	238.24
376.00	237.29
377.00	255.78
378.00	276.71
379.00	284.70
380.00	294.12
381.00	293.90
382.00	288.45
383.00	297.43
384.00	314.75
385.00	324.87
386.00	322.18
387.00	338.00
388.00	318.00
389.00	288.18
390.00	297.37
391.00	308.72
392.00	307.79
393.00	317.42
394.00	328.29
395.00	307.63
396.00	315.96
397.00	296.82
398.00	291.81
399.00	343.90
400.00	398.35
401.00	469.92
402.00	483.09
403.00	507.91
404.00	489.98
405.00	429.95
406.00	452.03
407.00	460.96
408.00	398.25
409.00	428.86
410.00	420.13
411.00	371.35
412.00	366.71
413.00	353.47
414.00	356.45
415.00	475.55
416.00	445.33
417.00	433.47
418.00	495.69
419.00	688.88
420.00	564.31
421.00	419.02
422.00	466.66
423.00	423.36
424.00	463.24
425.00	687.22
426.00	848.19
427.00	889.62
428.00	680.66
429.00	636.01
430.00	571.97
431.00	510.41
432.00	587.02
433.00	847.46
434.00	1432.11
435.00	880.42
436.00	633.53
437.00	584.55
438.00	500.41
439.00	603.35
440.00	540.78
441.00	552.83
442.00	868.36
443.00	579.18
444.00	436.72
445.00	396.99
446.00	392.46
447.00	433.13
448.00	427.39
449.00	443.94
450.00	498.71
451.00	510.13
452.00	520.50
453.00	563.65
454.00	741.48
455.00	678.38
456.00	692.61
457.00	749.09
458.00	883.37
459.00	717.36
460.00	1023.53
461.00	738.53
462.00	552.25
463.00	489.97
464.00	455.70
465.00	579.87
466.00	523.42
467.00	477.67
468.00	510.11
469.00	527.86
470.00	512.04
471.00	531.47
472.00	662.04
473.00	665.43
474.00	527.42
475.00	510.14
476.00	665.74
477.00	519.83
478.00	467.76
479.00	502.28
480.00	1040.58
481.00	668.91
482.00	561.02
483.00	526.76
484.00	637.61
485.00	1065.53
486.00	1110.60
487.00	1599.30
488.00	1216.97
489.00	825.51
490.00	676.48
491.00	654.69
492.00	638.09
493.00	644.80
494.00	574.96
495.00	565.92
496.00	691.43
497.00	584.64
498.00	557.49
499.00	568.88
500.00	667.10
501.00	718.57
502.00	572.03
503.00	576.97
504.00	730.45
505.00	803.85
506.00	777.72
507.00	867.85
508.00	815.49
509.00	699.75
510.00	610.94
511.00	585.03
512.00	567.87
513.00	599.23
514.00	691.71
515.00	582.36
516.00	559.82
517.00	541.14
518.00	609.15
519.00	579.96
520.00	504.08
521.00	522.45
522.00	526.37
523.00	515.14
524.00	536.20
525.00	567.00
526.00	550.82
527.00	510.19
528.00	502.38
529.00	489.83
530.00	485.60
531.00	525.88
532.00	581.38
533.00	616.68
534.00	628.84
535.00	674.73
536.00	636.26
537.00	620.06
538.00	602.49
539.00	583.30
540.00	552.07
541.00	562.01
542.00	570.36
543.00	567.32
544.00	580.01
545.00	588.45
546.00	644.84
547.00	701.21
548.00	633.38
549.00	698.74
550.00	724.50
551.00	674.75
552.00	598.03
553.00	585.96
554.00	564.18
555.00	614.70
556.00	613.59
557.00	549.74
558.00	482.78
559.00	500.64
560.00	560.58
561.00	507.27
562.00	468.39
563.00	457.83
564.00	478.48
565.00	529.28
566.00	547.42
567.00	579.07
568.00	582.04
569.00	571.08
570.00	548.20
571.00	526.56
572.00	458.38
573.00	475.82
574.00	487.46
575.00	455.41
576.00	463.14
577.00	473.95
578.00	475.74
579.00	473.37
580.00	469.31
581.00	439.58
582.00	422.44
583.00	443.36
584.00	437.58
585.00	424.89
586.00	462.95
587.00	484.25
588.00	517.55
589.00	551.58
590.00	498.72
591.00	490.35
592.00	461.16
593.00	459.72
594.00	426.04
595.00	408.22
596.00	394.32
597.00	410.51
598.00	439.38
599.00	456.12
600.00	473.07
601.00	510.71
602.00	523.18
603.00	798.41
604.00	684.62
605.00	561.96
606.00	491.04
607.00	413.84
608.00	374.05
609.00	355.87
610.00	401.59
611.00	462.01
612.00	441.80
613.00	407.70
614.00	397.33
615.00	417.61
616.00	435.73
617.00	490.88
618.00	410.09
619.00	426.58
620.00	432.77
621.00	460.67
622.00	419.94
623.00	368.20
624.00	448.07
625.00	491.09
626.00	461.85
627.00	448.25
628.00	448.68
629.00	449.02
630.00	453.29
631.00	433.39
632.00	383.39
633.00	365.88
634.00	353.31
635.00	341.04
636.00	348.25
637.00	361.93
638.00	375.68
639.00	357.01
640.00	408.55
641.00	425.94
642.00	451.28
643.00	403.04
644.00	381.00
645.00	383.07
646.00	406.00
647.00	378.00
648.00	379.44
649.00	355.84
650.00	337.70
651.00	321.73
652.00	329.66
653.00	343.57
654.00	367.24
655.00	359.07
656.00	1444.29
657.00	1105.43
658.00	575.90
659.00	379.50
660.00	333.73
661.00	320.08
662.00	294.06
663.00	282.66
664.00	363.60
665.00	334.38
666.00	302.68
667.00	301.70
668.00	329.38
669.00	332.12
670.00	310.46
671.00	303.38
672.00	308.08
673.00	310.02
674.00	307.45
675.00	404.16
676.00	399.61
677.00	313.71
678.00	291.24
679.00	284.66
680.00	275.99
681.00	277.57
682.00	285.33
683.00	271.78
684.00	292.20
685.00	285.81
686.00	268.77
687.00	324.70
688.00	311.48
689.00	318.62
690.00	280.30
691.00	283.15
692.00	288.85
693.00	298.98
694.00	352.67
695.00	331.37
696.00	417.04
697.00	726.34
698.00	424.45
699.00	337.58
700.00	312.54
701.00	310.91
702.00	302.98
703.00	386.00
704.00	359.33
705.00	318.33
706.00	296.75
707.00	556.41
708.00	369.45
709.00	302.03
710.00	266.21
711.00	279.89
712.00	279.89
713.00	268.28
714.00	264.95
715.00	309.09
716.00	289.45
717.00	261.92
718.00	258.91
719.00	255.79
720.00	261.44
721.00	269.54
722.00	272.68
723.00	282.67
724.00	283.95
725.00	334.05
726.00	278.59
727.00	305.67
728.00	343.70
729.00	288.76
730.00	258.09
731.00	260.05
732.00	262.37
733.00	250.39
734.00	244.72
735.00	269.70
736.00	292.56
737.00	323.57
738.00	432.90
739.00	615.77
740.00	356.84
741.00	270.06
742.00	248.95
743.00	248.96
744.00	262.74
745.00	275.60
746.00	234.84
747.00	236.35
748.00	243.07
749.00	248.88
750.00	416.98
751.00	1304.23
752.00	966.82
753.00	482.55
754.00	294.97
755.00	244.67
756.00	237.56
757.00	240.37
758.00	248.43
759.00	246.86
760.00	247.30
761.00	245.35
762.00	247.59
763.00	363.03
764.00	2244.58
765.00	1018.24
766.00	497.99
767.00	268.10
768.00	227.31
769.00	222.60
770.00	219.25
771.00	221.77
772.00	267.26
773.00	631.58
774.00	363.52
775.00	277.96
776.00	233.95
777.00	335.33
778.00	875.22
779.00	468.51
780.00	307.03
781.00	231.11
782.00	221.89
783.00	217.62
784.00	227.65
785.00	232.38
786.00	240.29
787.00	249.76
788.00	248.16
789.00	264.95
790.00	265.60
791.00	259.77
792.00	252.91
793.00	240.96
794.00	245.21
795.00	537.72
796.00	522.06
797.00	328.49
798.00	271.40
799.00	235.60
800.00	235.30
801.00	485.88
802.00	853.97
803.00	492.60
804.00	316.91
805.00	248.04
806.00	239.71
807.00	223.93
808.00	230.86
809.00	237.11
810.00	265.46
811.00	782.94
812.00	4024.89
813.00	2526.42
814.00	934.19
815.00	481.80
816.00	239.44
817.00	230.99
818.00	219.52
819.00	225.19
820.00	213.67
821.00	213.90
822.00	217.06
823.00	218.75
824.00	209.10
825.00	239.17
826.00	226.82
827.00	398.42
828.00	299.54
829.00	244.88
830.00	228.03
831.00	221.09
832.00	213.45
833.00	208.53
834.00	214.95
835.00	214.64
836.00	209.68
837.00	209.69
838.00	212.44
839.00	216.02
840.00	217.14
841.00	364.69
842.00	421.01
843.00	834.41
844.00	489.79
845.00	375.28
846.00	295.89
847.00	231.75
848.00	215.72
849.00	208.62
850.00	214.16
851.00	210.86
852.00	230.63
853.00	346.87
854.00	249.66
855.00	224.97
856.00	235.14
857.00	210.44
858.00	212.15
859.00	208.30
860.00	208.16
861.00	229.74
862.00	212.45
863.00	213.65
864.00	223.96
865.00	217.64
866.00	215.86
867.00	224.48
868.00	230.02
869.00	223.82
870.00	216.33
871.00	215.56
872.00	209.88
873.00	213.86
874.00	204.75
875.00	208.64
876.00	207.40
877.00	209.09
878.00	211.13
879.00	206.61
880.00	207.71
881.00	208.81
882.00	208.32
883.00	204.99
884.00	203.00
885.00	206.34
886.00	205.88
887.00	211.12
888.00	202.55
889.00	203.53
890.00	207.81
891.00	219.21
892.00	207.78
893.00	201.31
894.00	202.15
895.00	214.57
896.00	200.47
897.00	197.74
898.00	203.86
899.00	202.20
900.00	208.43
901.00	204.61
902.00	202.03
903.00	218.81
904.00	199.05
905.00	204.03
906.00	209.33
907.00	207.04
908.00	211.15
909.00	202.90
910.00	206.13
911.00	214.63
912.00	255.33
913.00	486.58
914.00	361.57
915.00	285.57
916.00	256.01
917.00	226.60
918.00	209.99
919.00	208.56
920.00	201.03
921.00	211.35
922.00	206.15
923.00	242.69
924.00	228.83
925.00	221.91
926.00	212.01
927.00	217.94
928.00	205.71
929.00	206.18
930.00	204.86
931.00	201.89
932.00	200.79
933.00	203.36
934.00	199.05
935.00	199.99
936.00	199.01
937.00	198.06
938.00	205.46
939.00	204.86
940.00	198.85
941.00	202.43
942.00	209.91
943.00	202.38
944.00	197.90
945.00	218.00
946.00	199.32
947.00	205.20
948.00	196.70
949.00	198.02
950.00	200.89
951.00	201.91
952.00	198.00
953.00	202.98
954.00	199.66
955.00	208.13
956.00	198.76
957.00	201.86
958.00	203.53
959.00	202.84
960.00	202.69
961.00	199.17
962.00	204.18
963.00	200.88
964.00	203.96
965.00	200.84
966.00	205.54
967.00	217.15
968.00	207.95
969.00	209.35
970.00	207.03
971.00	210.61
972.00	201.45
973.00	207.80
974.00	207.35
975.00	199.01
976.00	203.55
977.00	195.87
978.00	202.88
979.00	205.90
980.00	203.10
981.00	208.74
982.00	200.80
983.00	209.70
984.00	200.51
985.00	208.09
986.00	201.75
987.00	203.95
988.00	204.29
989.00	202.00
990.00	198.20
991.00	204.82
992.00	199.57
993.00	204.19
994.00	200.91
995.00	205.98
996.00	203.75
997.00	205.03
998.00	201.66
999.00	203.76
1000.00	199.98
>>>>>End Processed Spectral Data<<<<<
