SpectraSuite Data File
++++++++++++++++++++++++++++++++++++
Date: Thu Oct 13 14:58:09 CDT 2011
User: Helimak
Dark Spectrum Present: No
Reference Spectrum Present: No
Number of Sampled Component Spectra: 1
Spectrometers: USB2G37154
Integration Time (usec): 200000 (USB2G37154)
Spectra Averaged: 1 (USB2G37154)
Boxcar Smoothing: 0 (USB2G37154)
Correct for Electrical Dark: No (USB2G37154)
Strobe/Lamp Enabled: No (USB2G37154)
Correct for Detector Non-linearity: No (USB2G37154)
Correct for Stray Light: No (USB2G37154)
Number of Pixels in Processed Spectrum: 651
>>>>>Begin Processed Spectral Data<<<<<
350.00	196.68
351.00	201.73
352.00	198.73
353.00	196.29
354.00	194.69
355.00	204.27
356.00	202.98
357.00	203.94
358.00	202.50
359.00	204.16
360.00	201.43
361.00	206.47
362.00	207.74
363.00	203.64
364.00	206.15
365.00	199.48
366.00	201.57
367.00	208.02
368.00	206.07
369.00	208.37
370.00	209.06
371.00	210.28
372.00	212.24
373.00	211.90
374.00	205.63
375.00	214.73
376.00	212.90
377.00	222.50
378.00	224.40
379.00	231.40
380.00	233.75
381.00	238.48
382.00	238.93
383.00	237.87
384.00	243.75
385.00	247.43
386.00	247.01
387.00	252.53
388.00	246.51
389.00	234.42
390.00	237.26
391.00	248.04
392.00	241.58
393.00	241.48
394.00	246.27
395.00	241.41
396.00	243.01
397.00	237.84
398.00	230.35
399.00	248.24
400.00	277.44
401.00	310.41
402.00	309.89
403.00	321.91
404.00	318.38
405.00	296.49
406.00	299.02
407.00	295.17
408.00	272.62
409.00	286.19
410.00	289.46
411.00	266.55
412.00	267.85
413.00	259.83
414.00	260.53
415.00	306.37
416.00	300.27
417.00	288.12
418.00	308.10
419.00	393.99
420.00	337.67
421.00	285.99
422.00	305.33
423.00	290.06
424.00	299.38
425.00	400.40
426.00	457.79
427.00	453.72
428.00	386.82
429.00	369.22
430.00	345.63
431.00	317.58
432.00	353.97
433.00	447.69
434.00	674.91
435.00	463.51
436.00	368.34
437.00	350.84
438.00	321.60
439.00	355.96
440.00	329.86
441.00	337.17
442.00	460.98
443.00	350.79
444.00	293.08
445.00	275.76
446.00	275.23
447.00	294.57
448.00	296.66
449.00	299.04
450.00	315.69
451.00	325.88
452.00	322.86
453.00	346.06
454.00	397.69
455.00	379.24
456.00	387.79
457.00	413.13
458.00	453.12
459.00	403.10
460.00	491.50
461.00	399.01
462.00	336.81
463.00	312.01
464.00	302.54
465.00	347.62
466.00	331.58
467.00	314.24
468.00	320.10
469.00	327.62
470.00	321.35
471.00	333.61
472.00	384.35
473.00	379.26
474.00	330.15
475.00	330.48
476.00	380.56
477.00	328.53
478.00	307.46
479.00	316.68
480.00	525.53
481.00	379.31
482.00	334.74
483.00	326.22
484.00	377.75
485.00	526.58
486.00	548.01
487.00	731.74
488.00	596.91
489.00	437.54
490.00	373.70
491.00	377.29
492.00	372.81
493.00	370.35
494.00	346.25
495.00	338.67
496.00	386.24
497.00	360.11
498.00	335.08
499.00	343.66
500.00	385.67
501.00	401.08
502.00	342.04
503.00	342.01
504.00	409.17
505.00	440.65
506.00	419.69
507.00	446.73
508.00	432.59
509.00	388.11
510.00	359.09
511.00	340.97
512.00	342.37
513.00	356.14
514.00	392.44
515.00	346.24
516.00	339.63
517.00	331.37
518.00	361.15
519.00	348.78
520.00	323.49
521.00	322.68
522.00	329.77
523.00	317.02
524.00	329.81
525.00	341.91
526.00	338.25
527.00	326.31
528.00	314.77
529.00	310.74
530.00	300.13
531.00	326.39
532.00	347.50
533.00	361.58
534.00	372.64
535.00	381.80
536.00	374.03
537.00	363.50
538.00	358.62
539.00	344.06
540.00	338.84
541.00	338.83
542.00	339.60
543.00	338.17
544.00	342.02
545.00	352.25
546.00	372.10
547.00	394.95
548.00	369.22
549.00	405.20
550.00	403.64
551.00	378.98
552.00	360.80
553.00	351.70
554.00	334.75
555.00	356.56
556.00	361.10
557.00	337.97
558.00	315.17
559.00	309.57
560.00	342.57
561.00	314.57
562.00	301.97
563.00	304.89
564.00	307.83
565.00	335.61
566.00	334.00
567.00	347.05
568.00	347.16
569.00	334.82
570.00	336.26
571.00	327.99
572.00	301.77
573.00	309.03
574.00	311.49
575.00	299.45
576.00	298.14
577.00	307.56
578.00	305.57
579.00	304.53
580.00	313.74
581.00	292.47
582.00	285.44
583.00	298.92
584.00	293.48
585.00	290.40
586.00	297.55
587.00	310.19
588.00	322.46
589.00	339.94
590.00	314.69
591.00	313.30
592.00	303.77
593.00	291.13
594.00	282.03
595.00	283.78
596.00	272.71
597.00	283.39
598.00	295.20
599.00	308.21
600.00	313.73
601.00	326.17
602.00	327.41
603.00	439.63
604.00	390.22
605.00	333.65
606.00	310.61
607.00	281.24
608.00	265.13
609.00	264.74
610.00	277.55
611.00	302.35
612.00	290.34
613.00	274.70
614.00	282.26
615.00	280.31
616.00	292.51
617.00	312.98
618.00	283.61
619.00	282.66
620.00	293.37
621.00	301.19
622.00	282.33
623.00	266.05
624.00	296.62
625.00	307.79
626.00	302.11
627.00	300.75
628.00	295.31
629.00	294.84
630.00	290.98
631.00	289.28
632.00	267.32
633.00	263.73
634.00	256.01
635.00	255.08
636.00	254.58
637.00	262.86
638.00	264.28
639.00	264.11
640.00	277.33
641.00	284.50
642.00	296.41
643.00	276.23
644.00	271.94
645.00	271.07
646.00	287.10
647.00	269.95
648.00	267.21
649.00	265.87
650.00	248.69
651.00	247.46
652.00	254.42
653.00	254.93
654.00	265.30
655.00	265.75
656.00	669.35
657.00	550.38
658.00	351.96
659.00	263.99
660.00	249.29
661.00	243.53
662.00	233.63
663.00	229.22
664.00	261.12
665.00	246.30
666.00	239.55
667.00	234.05
668.00	249.73
669.00	248.03
670.00	243.80
671.00	243.28
672.00	239.20
673.00	247.02
674.00	244.10
675.00	275.93
676.00	279.99
677.00	243.48
678.00	235.38
679.00	230.18
680.00	229.31
681.00	228.08
682.00	229.29
683.00	230.24
684.00	233.81
685.00	233.05
686.00	230.31
687.00	250.96
688.00	246.00
689.00	242.02
690.00	231.47
691.00	235.70
692.00	234.33
693.00	238.57
694.00	250.70
695.00	252.01
696.00	282.01
697.00	413.81
698.00	283.90
699.00	250.39
700.00	242.85
701.00	235.97
702.00	240.27
703.00	269.43
704.00	270.32
705.00	241.79
706.00	232.41
707.00	338.47
708.00	268.92
709.00	240.13
710.00	225.93
711.00	231.58
712.00	226.17
713.00	225.34
714.00	229.50
715.00	240.04
716.00	228.30
717.00	224.84
718.00	216.49
719.00	214.41
720.00	222.13
721.00	228.86
722.00	226.44
723.00	235.16
724.00	231.10
725.00	249.01
726.00	231.53
727.00	241.29
728.00	255.62
729.00	229.12
730.00	225.41
731.00	220.49
732.00	222.28
733.00	216.57
734.00	212.16
735.00	225.78
736.00	236.70
737.00	241.55
738.00	296.45
739.00	359.91
740.00	263.70
741.00	226.36
742.00	217.99
743.00	220.95
744.00	219.83
745.00	226.69
746.00	209.35
747.00	212.72
748.00	218.60
749.00	220.74
750.00	287.65
751.00	622.56
752.00	496.79
753.00	316.27
754.00	237.08
755.00	216.55
756.00	215.63
757.00	217.96
758.00	219.97
759.00	220.07
760.00	216.58
761.00	214.21
762.00	217.13
763.00	256.45
764.00	1000.48
765.00	513.77
766.00	316.56
767.00	223.95
768.00	212.07
769.00	208.95
770.00	210.43
771.00	209.10
772.00	222.73
773.00	371.37
774.00	262.44
775.00	234.20
776.00	214.82
777.00	251.38
778.00	459.06
779.00	304.79
780.00	236.03
781.00	213.40
782.00	202.79
783.00	207.57
784.00	210.02
785.00	213.34
786.00	213.71
787.00	221.80
788.00	218.67
789.00	225.99
790.00	227.44
791.00	222.81
792.00	220.63
793.00	220.71
794.00	214.12
795.00	332.01
796.00	325.78
797.00	250.25
798.00	223.39
799.00	214.06
800.00	213.19
801.00	309.99
802.00	446.26
803.00	319.74
804.00	242.16
805.00	216.81
806.00	218.87
807.00	208.07
808.00	213.10
809.00	211.63
810.00	226.69
811.00	427.83
812.00	1879.00
813.00	1073.44
814.00	489.48
815.00	307.25
816.00	210.77
817.00	208.47
818.00	206.24
819.00	205.04
820.00	206.92
821.00	204.00
822.00	208.16
823.00	205.17
824.00	207.28
825.00	215.27
826.00	209.05
827.00	277.38
828.00	239.72
829.00	219.40
830.00	209.02
831.00	204.13
832.00	202.12
833.00	200.54
834.00	210.43
835.00	198.99
836.00	203.93
837.00	205.68
838.00	204.74
839.00	203.16
840.00	203.89
841.00	265.11
842.00	290.81
843.00	433.99
844.00	316.74
845.00	266.85
846.00	241.31
847.00	210.29
848.00	204.40
849.00	200.73
850.00	205.07
851.00	200.93
852.00	212.19
853.00	259.72
854.00	216.30
855.00	208.82
856.00	215.48
857.00	201.93
858.00	208.86
859.00	201.11
860.00	200.19
861.00	209.51
862.00	204.18
863.00	207.57
864.00	208.83
865.00	208.12
866.00	203.82
867.00	210.06
868.00	211.95
869.00	209.42
870.00	204.35
871.00	203.86
872.00	208.14
873.00	201.73
874.00	205.21
875.00	202.92
876.00	205.40
877.00	199.68
878.00	200.99
879.00	201.43
880.00	198.84
881.00	204.90
882.00	201.01
883.00	199.96
884.00	200.01
885.00	197.39
886.00	203.07
887.00	203.07
888.00	202.93
889.00	200.69
890.00	204.42
891.00	201.32
892.00	200.72
893.00	202.54
894.00	200.40
895.00	207.70
896.00	198.21
897.00	197.64
898.00	197.03
899.00	197.89
900.00	202.05
901.00	201.76
902.00	196.39
903.00	206.20
904.00	198.41
905.00	194.07
906.00	205.89
907.00	200.74
908.00	205.50
909.00	199.64
910.00	200.65
911.00	200.78
912.00	223.81
913.00	314.78
914.00	262.77
915.00	233.21
916.00	219.24
917.00	207.69
918.00	204.25
919.00	202.34
920.00	202.07
921.00	206.04
922.00	201.56
923.00	219.84
924.00	209.57
925.00	203.09
926.00	204.99
927.00	207.71
928.00	202.97
929.00	201.89
930.00	199.21
931.00	197.79
932.00	196.55
933.00	196.73
934.00	201.29
935.00	197.94
936.00	197.99
937.00	197.19
938.00	198.94
939.00	197.00
940.00	200.99
941.00	199.66
942.00	202.99
943.00	198.35
944.00	204.82
945.00	204.26
946.00	197.25
947.00	199.13
948.00	196.85
949.00	198.14
950.00	203.28
951.00	198.70
952.00	200.03
953.00	199.24
954.00	194.87
955.00	201.29
956.00	197.85
957.00	200.55
958.00	202.88
959.00	195.98
960.00	198.91
961.00	202.49
962.00	201.50
963.00	199.66
964.00	198.27
965.00	198.92
966.00	198.21
967.00	205.07
968.00	206.00
969.00	202.35
970.00	201.67
971.00	200.46
972.00	199.49
973.00	197.24
974.00	202.16
975.00	198.62
976.00	198.97
977.00	197.40
978.00	199.62
979.00	202.39
980.00	196.40
981.00	197.48
982.00	197.96
983.00	204.70
984.00	196.14
985.00	198.91
986.00	196.64
987.00	202.98
988.00	201.03
989.00	197.19
990.00	198.72
991.00	200.24
992.00	196.21
993.00	201.65
994.00	202.49
995.00	196.54
996.00	203.65
997.00	198.07
998.00	200.76
999.00	196.35
1000.00	199.48
>>>>>End Processed Spectral Data<<<<<
