SpectraSuite Data File
++++++++++++++++++++++++++++++++++++
Date: Thu Oct 13 14:58:08 CDT 2011
User: Helimak
Dark Spectrum Present: No
Reference Spectrum Present: No
Number of Sampled Component Spectra: 1
Spectrometers: USB2G37154
Integration Time (usec): 200000 (USB2G37154)
Spectra Averaged: 1 (USB2G37154)
Boxcar Smoothing: 0 (USB2G37154)
Correct for Electrical Dark: No (USB2G37154)
Strobe/Lamp Enabled: No (USB2G37154)
Correct for Detector Non-linearity: No (USB2G37154)
Correct for Stray Light: No (USB2G37154)
Number of Pixels in Processed Spectrum: 651
>>>>>Begin Processed Spectral Data<<<<<
350.00	195.31
351.00	201.96
352.00	198.64
353.00	199.52
354.00	203.54
355.00	203.08
356.00	202.40
357.00	200.81
358.00	204.47
359.00	202.78
360.00	202.95
361.00	203.87
362.00	206.66
363.00	202.63
364.00	208.61
365.00	205.40
366.00	206.82
367.00	207.68
368.00	208.07
369.00	210.64
370.00	211.06
371.00	208.90
372.00	210.47
373.00	213.84
374.00	211.06
375.00	214.23
376.00	212.32
377.00	216.77
378.00	227.84
379.00	233.65
380.00	232.16
381.00	234.72
382.00	236.35
383.00	236.32
384.00	244.38
385.00	248.25
386.00	253.97
387.00	247.56
388.00	237.03
389.00	239.61
390.00	241.22
391.00	238.41
392.00	242.50
393.00	245.22
394.00	247.62
395.00	240.01
396.00	242.95
397.00	237.70
398.00	238.69
399.00	258.05
400.00	279.05
401.00	301.41
402.00	318.94
403.00	324.80
404.00	318.58
405.00	295.81
406.00	299.01
407.00	298.30
408.00	276.73
409.00	287.50
410.00	288.01
411.00	268.80
412.00	274.18
413.00	262.11
414.00	260.27
415.00	317.46
416.00	300.49
417.00	290.51
418.00	316.96
419.00	398.11
420.00	345.64
421.00	290.38
422.00	312.24
423.00	294.04
424.00	307.24
425.00	400.11
426.00	455.96
427.00	469.71
428.00	398.47
429.00	374.27
430.00	351.98
431.00	315.99
432.00	358.05
433.00	447.99
434.00	700.84
435.00	475.61
436.00	377.10
437.00	352.51
438.00	323.70
439.00	359.13
440.00	335.91
441.00	338.77
442.00	462.01
443.00	354.49
444.00	301.74
445.00	274.94
446.00	276.18
447.00	292.53
448.00	295.52
449.00	301.79
450.00	318.57
451.00	322.60
452.00	332.35
453.00	342.35
454.00	411.88
455.00	377.93
456.00	393.96
457.00	416.00
458.00	459.65
459.00	407.52
460.00	527.92
461.00	422.67
462.00	338.22
463.00	311.11
464.00	296.40
465.00	357.93
466.00	325.68
467.00	314.18
468.00	319.07
469.00	325.80
470.00	326.78
471.00	332.90
472.00	388.63
473.00	389.79
474.00	331.67
475.00	325.93
476.00	386.32
477.00	328.64
478.00	303.65
479.00	319.09
480.00	540.58
481.00	389.90
482.00	342.63
483.00	329.70
484.00	377.33
485.00	536.07
486.00	551.88
487.00	737.87
488.00	594.60
489.00	441.74
490.00	386.00
491.00	385.89
492.00	372.65
493.00	376.46
494.00	351.89
495.00	348.38
496.00	399.72
497.00	363.37
498.00	336.29
499.00	345.53
500.00	393.36
501.00	395.85
502.00	350.01
503.00	357.17
504.00	410.00
505.00	439.69
506.00	427.30
507.00	456.62
508.00	439.72
509.00	393.88
510.00	359.34
511.00	349.93
512.00	340.01
513.00	356.88
514.00	396.93
515.00	353.92
516.00	340.06
517.00	331.49
518.00	363.45
519.00	348.52
520.00	327.13
521.00	323.35
522.00	326.79
523.00	325.63
524.00	331.86
525.00	343.98
526.00	334.88
527.00	328.79
528.00	325.34
529.00	316.46
530.00	316.33
531.00	329.94
532.00	352.86
533.00	368.08
534.00	365.79
535.00	386.81
536.00	370.03
537.00	372.82
538.00	360.71
539.00	349.20
540.00	336.29
541.00	350.79
542.00	346.37
543.00	348.91
544.00	339.01
545.00	352.47
546.00	377.46
547.00	391.13
548.00	368.01
549.00	397.59
550.00	397.84
551.00	381.90
552.00	357.26
553.00	352.92
554.00	342.15
555.00	359.84
556.00	360.85
557.00	334.54
558.00	317.70
559.00	319.37
560.00	337.87
561.00	313.58
562.00	307.83
563.00	302.00
564.00	312.65
565.00	331.14
566.00	329.75
567.00	344.44
568.00	359.85
569.00	345.73
570.00	337.69
571.00	325.84
572.00	298.18
573.00	305.21
574.00	315.65
575.00	303.37
576.00	304.27
577.00	312.30
578.00	313.81
579.00	308.29
580.00	303.74
581.00	293.78
582.00	280.49
583.00	292.61
584.00	295.99
585.00	289.52
586.00	307.16
587.00	313.89
588.00	326.84
589.00	329.97
590.00	319.30
591.00	313.54
592.00	301.14
593.00	301.91
594.00	284.05
595.00	279.04
596.00	281.27
597.00	284.92
598.00	290.68
599.00	300.56
600.00	306.43
601.00	319.08
602.00	325.48
603.00	434.23
604.00	392.33
605.00	338.48
606.00	319.03
607.00	286.31
608.00	274.94
609.00	263.94
610.00	275.64
611.00	308.64
612.00	293.34
613.00	280.96
614.00	279.64
615.00	290.84
616.00	297.28
617.00	316.95
618.00	281.74
619.00	288.20
620.00	287.02
621.00	309.21
622.00	282.68
623.00	267.75
624.00	292.84
625.00	311.41
626.00	300.86
627.00	290.21
628.00	292.34
629.00	296.54
630.00	300.36
631.00	292.17
632.00	271.89
633.00	265.68
634.00	261.11
635.00	260.09
636.00	263.74
637.00	265.24
638.00	269.06
639.00	265.23
640.00	278.83
641.00	282.52
642.00	300.28
643.00	279.24
644.00	274.32
645.00	274.54
646.00	280.08
647.00	268.59
648.00	270.28
649.00	265.03
650.00	252.22
651.00	250.75
652.00	254.14
653.00	255.75
654.00	261.68
655.00	253.21
656.00	681.11
657.00	560.10
658.00	351.95
659.00	269.19
660.00	248.53
661.00	242.68
662.00	234.06
663.00	230.99
664.00	266.67
665.00	257.30
666.00	236.67
667.00	238.66
668.00	246.54
669.00	250.28
670.00	244.98
671.00	241.45
672.00	243.23
673.00	242.00
674.00	244.16
675.00	279.89
676.00	279.08
677.00	244.07
678.00	236.22
679.00	230.47
680.00	228.38
681.00	232.96
682.00	232.43
683.00	230.38
684.00	237.20
685.00	230.20
686.00	221.41
687.00	244.94
688.00	238.21
689.00	238.48
690.00	232.71
691.00	236.83
692.00	237.78
693.00	237.52
694.00	260.40
695.00	250.92
696.00	280.01
697.00	406.76
698.00	287.31
699.00	256.16
700.00	247.73
701.00	239.70
702.00	239.00
703.00	275.75
704.00	265.46
705.00	244.03
706.00	240.13
707.00	337.28
708.00	262.38
709.00	245.90
710.00	223.24
711.00	231.12
712.00	228.33
713.00	230.56
714.00	224.90
715.00	241.39
716.00	231.21
717.00	224.73
718.00	217.52
719.00	219.36
720.00	225.34
721.00	230.41
722.00	228.20
723.00	236.30
724.00	234.33
725.00	253.65
726.00	229.00
727.00	240.24
728.00	255.49
729.00	236.59
730.00	227.14
731.00	221.89
732.00	222.55
733.00	217.50
734.00	215.24
735.00	226.54
736.00	237.34
737.00	251.97
738.00	298.08
739.00	363.87
740.00	262.24
741.00	225.85
742.00	217.94
743.00	223.00
744.00	226.00
745.00	229.27
746.00	211.65
747.00	217.93
748.00	212.28
749.00	218.95
750.00	288.69
751.00	634.97
752.00	503.10
753.00	314.31
754.00	236.82
755.00	217.01
756.00	215.78
757.00	209.70
758.00	218.33
759.00	216.74
760.00	213.48
761.00	217.22
762.00	221.79
763.00	264.39
764.00	1030.52
765.00	525.37
766.00	311.25
767.00	225.25
768.00	214.77
769.00	207.85
770.00	210.12
771.00	209.33
772.00	225.27
773.00	369.56
774.00	263.95
775.00	231.37
776.00	206.79
777.00	251.71
778.00	469.10
779.00	301.88
780.00	222.50
781.00	210.35
782.00	208.69
783.00	202.70
784.00	209.04
785.00	207.56
786.00	210.42
787.00	214.65
788.00	220.10
789.00	217.98
790.00	226.43
791.00	220.11
792.00	222.52
793.00	221.94
794.00	213.36
795.00	334.86
796.00	334.27
797.00	249.97
798.00	222.43
799.00	211.85
800.00	211.53
801.00	312.22
802.00	462.42
803.00	318.42
804.00	246.64
805.00	215.92
806.00	211.07
807.00	207.90
808.00	208.11
809.00	214.39
810.00	224.98
811.00	435.96
812.00	1945.46
813.00	1095.89
814.00	494.88
815.00	315.85
816.00	218.46
817.00	209.93
818.00	205.37
819.00	207.29
820.00	202.18
821.00	203.06
822.00	206.17
823.00	204.43
824.00	204.35
825.00	216.52
826.00	208.77
827.00	284.71
828.00	244.08
829.00	217.05
830.00	210.91
831.00	203.38
832.00	205.66
833.00	205.26
834.00	210.94
835.00	203.93
836.00	203.59
837.00	205.34
838.00	203.26
839.00	203.94
840.00	204.26
841.00	265.39
842.00	287.19
843.00	445.72
844.00	311.51
845.00	261.86
846.00	237.26
847.00	207.37
848.00	204.43
849.00	200.28
850.00	198.89
851.00	204.85
852.00	212.10
853.00	260.10
854.00	217.43
855.00	209.36
856.00	215.25
857.00	203.34
858.00	203.80
859.00	198.24
860.00	204.73
861.00	210.30
862.00	202.07
863.00	203.94
864.00	208.99
865.00	205.57
866.00	202.58
867.00	209.50
868.00	213.03
869.00	208.53
870.00	205.51
871.00	202.80
872.00	206.85
873.00	206.17
874.00	203.55
875.00	201.07
876.00	205.00
877.00	199.90
878.00	203.02
879.00	200.97
880.00	202.03
881.00	202.54
882.00	200.89
883.00	197.23
884.00	198.00
885.00	198.14
886.00	200.63
887.00	198.31
888.00	199.01
889.00	199.41
890.00	200.85
891.00	199.35
892.00	204.23
893.00	200.44
894.00	196.35
895.00	204.66
896.00	198.10
897.00	201.00
898.00	197.50
899.00	201.85
900.00	202.99
901.00	198.29
902.00	199.41
903.00	203.02
904.00	197.93
905.00	199.30
906.00	204.35
907.00	198.84
908.00	203.63
909.00	198.72
910.00	202.27
911.00	204.23
912.00	215.38
913.00	308.01
914.00	263.80
915.00	234.26
916.00	223.83
917.00	204.24
918.00	202.75
919.00	201.33
920.00	198.80
921.00	206.72
922.00	206.29
923.00	218.06
924.00	208.77
925.00	204.13
926.00	206.01
927.00	202.22
928.00	200.91
929.00	203.20
930.00	199.11
931.00	198.59
932.00	200.96
933.00	199.17
934.00	201.04
935.00	198.97
936.00	196.04
937.00	199.91
938.00	200.03
939.00	196.15
940.00	199.59
941.00	198.35
942.00	202.87
943.00	198.11
944.00	200.82
945.00	202.44
946.00	198.36
947.00	197.98
948.00	195.34
949.00	200.03
950.00	199.00
951.00	199.83
952.00	197.97
953.00	197.61
954.00	194.20
955.00	200.99
956.00	197.67
957.00	202.30
958.00	202.23
959.00	202.95
960.00	200.71
961.00	199.54
962.00	202.38
963.00	198.41
964.00	198.22
965.00	197.89
966.00	200.54
967.00	204.69
968.00	210.97
969.00	203.00
970.00	197.81
971.00	198.87
972.00	195.53
973.00	202.16
974.00	200.61
975.00	200.43
976.00	200.34
977.00	198.66
978.00	199.56
979.00	198.90
980.00	199.48
981.00	200.62
982.00	202.45
983.00	200.14
984.00	201.92
985.00	198.33
986.00	197.95
987.00	198.69
988.00	200.01
989.00	200.56
990.00	198.22
991.00	202.49
992.00	193.44
993.00	201.28
994.00	200.45
995.00	199.03
996.00	201.06
997.00	200.50
998.00	199.81
999.00	198.78
1000.00	197.99
>>>>>End Processed Spectral Data<<<<<
