SpectraSuite Data File
++++++++++++++++++++++++++++++++++++
Date: Thu Oct 13 14:58:10 CDT 2011
User: Helimak
Dark Spectrum Present: No
Reference Spectrum Present: No
Number of Sampled Component Spectra: 1
Spectrometers: USB2G37154
Integration Time (usec): 200000 (USB2G37154)
Spectra Averaged: 1 (USB2G37154)
Boxcar Smoothing: 0 (USB2G37154)
Correct for Electrical Dark: No (USB2G37154)
Strobe/Lamp Enabled: No (USB2G37154)
Correct for Detector Non-linearity: No (USB2G37154)
Correct for Stray Light: No (USB2G37154)
Number of Pixels in Processed Spectrum: 651
>>>>>Begin Processed Spectral Data<<<<<
350.00	196.64
351.00	195.14
352.00	198.22
353.00	200.35
354.00	200.67
355.00	206.13
356.00	205.14
357.00	199.01
358.00	202.11
359.00	204.22
360.00	204.83
361.00	204.79
362.00	208.92
363.00	199.70
364.00	209.29
365.00	205.65
366.00	203.42
367.00	207.16
368.00	206.03
369.00	208.48
370.00	215.01
371.00	209.49
372.00	210.45
373.00	207.09
374.00	209.55
375.00	216.64
376.00	211.89
377.00	222.32
378.00	229.24
379.00	232.70
380.00	237.15
381.00	235.13
382.00	234.74
383.00	236.20
384.00	238.88
385.00	249.85
386.00	244.06
387.00	247.57
388.00	242.73
389.00	236.63
390.00	235.70
391.00	240.66
392.00	245.96
393.00	243.51
394.00	243.90
395.00	235.48
396.00	241.98
397.00	238.84
398.00	238.80
399.00	247.22
400.00	280.86
401.00	300.90
402.00	308.72
403.00	321.64
404.00	309.76
405.00	294.40
406.00	301.02
407.00	307.33
408.00	275.82
409.00	291.88
410.00	287.73
411.00	269.44
412.00	266.38
413.00	259.95
414.00	266.07
415.00	309.34
416.00	294.27
417.00	284.02
418.00	308.16
419.00	393.67
420.00	341.42
421.00	290.95
422.00	307.08
423.00	289.60
424.00	298.14
425.00	399.99
426.00	452.95
427.00	463.92
428.00	391.33
429.00	366.15
430.00	344.63
431.00	317.05
432.00	356.50
433.00	448.89
434.00	670.81
435.00	463.67
436.00	368.81
437.00	352.15
438.00	325.13
439.00	350.83
440.00	333.82
441.00	342.60
442.00	455.90
443.00	351.42
444.00	288.38
445.00	278.86
446.00	274.10
447.00	289.27
448.00	291.09
449.00	293.92
450.00	322.94
451.00	324.91
452.00	323.90
453.00	345.39
454.00	405.52
455.00	377.37
456.00	379.24
457.00	403.02
458.00	457.73
459.00	404.34
460.00	509.33
461.00	402.92
462.00	336.20
463.00	307.95
464.00	299.65
465.00	352.04
466.00	330.12
467.00	300.62
468.00	322.09
469.00	325.96
470.00	320.54
471.00	323.15
472.00	375.41
473.00	384.58
474.00	326.61
475.00	321.88
476.00	378.63
477.00	326.29
478.00	305.93
479.00	314.20
480.00	534.67
481.00	377.16
482.00	340.02
483.00	331.24
484.00	370.97
485.00	525.29
486.00	543.48
487.00	724.34
488.00	588.25
489.00	427.67
490.00	385.62
491.00	373.47
492.00	372.42
493.00	370.49
494.00	344.46
495.00	343.31
496.00	392.44
497.00	355.64
498.00	341.41
499.00	337.00
500.00	389.50
501.00	397.60
502.00	350.02
503.00	352.43
504.00	402.13
505.00	437.82
506.00	424.07
507.00	452.66
508.00	433.22
509.00	396.69
510.00	357.22
511.00	347.02
512.00	342.97
513.00	350.94
514.00	393.82
515.00	347.90
516.00	339.88
517.00	333.41
518.00	357.27
519.00	348.73
520.00	319.84
521.00	317.05
522.00	327.37
523.00	323.36
524.00	327.91
525.00	342.13
526.00	342.71
527.00	316.95
528.00	315.61
529.00	312.03
530.00	320.26
531.00	332.66
532.00	349.54
533.00	362.45
534.00	365.53
535.00	380.21
536.00	370.22
537.00	367.80
538.00	350.82
539.00	344.12
540.00	335.79
541.00	339.93
542.00	340.44
543.00	349.66
544.00	335.38
545.00	346.52
546.00	375.74
547.00	401.32
548.00	365.07
549.00	389.57
550.00	391.88
551.00	381.95
552.00	361.48
553.00	354.13
554.00	341.11
555.00	358.65
556.00	366.64
557.00	338.25
558.00	316.59
559.00	318.33
560.00	339.61
561.00	315.15
562.00	310.06
563.00	300.80
564.00	307.00
565.00	326.68
566.00	330.58
567.00	347.70
568.00	346.14
569.00	334.37
570.00	336.57
571.00	326.01
572.00	296.42
573.00	310.25
574.00	308.98
575.00	302.30
576.00	300.53
577.00	305.81
578.00	311.47
579.00	310.89
580.00	304.15
581.00	290.22
582.00	287.13
583.00	292.39
584.00	295.86
585.00	285.55
586.00	302.22
587.00	313.05
588.00	329.03
589.00	332.85
590.00	312.29
591.00	310.22
592.00	302.48
593.00	304.54
594.00	292.04
595.00	278.02
596.00	274.49
597.00	283.04
598.00	291.48
599.00	299.06
600.00	305.38
601.00	321.04
602.00	324.84
603.00	437.66
604.00	394.36
605.00	337.40
606.00	311.31
607.00	283.83
608.00	267.98
609.00	260.97
610.00	280.05
611.00	307.35
612.00	291.88
613.00	283.09
614.00	279.69
615.00	282.36
616.00	300.07
617.00	307.99
618.00	277.61
619.00	287.80
620.00	288.97
621.00	305.90
622.00	287.36
623.00	268.82
624.00	293.60
625.00	312.84
626.00	302.03
627.00	297.51
628.00	294.38
629.00	296.16
630.00	293.24
631.00	287.49
632.00	272.04
633.00	257.50
634.00	253.75
635.00	252.94
636.00	253.97
637.00	262.98
638.00	264.53
639.00	263.01
640.00	278.50
641.00	280.30
642.00	300.31
643.00	280.52
644.00	271.79
645.00	268.16
646.00	281.08
647.00	271.06
648.00	265.36
649.00	262.71
650.00	248.49
651.00	249.68
652.00	253.16
653.00	258.34
654.00	263.44
655.00	263.15
656.00	668.85
657.00	548.15
658.00	343.95
659.00	262.73
660.00	252.25
661.00	243.03
662.00	237.40
663.00	237.45
664.00	265.63
665.00	251.14
666.00	241.04
667.00	235.99
668.00	248.26
669.00	252.00
670.00	241.32
671.00	238.05
672.00	237.61
673.00	244.00
674.00	239.03
675.00	275.92
676.00	273.15
677.00	242.66
678.00	237.93
679.00	231.38
680.00	230.64
681.00	230.25
682.00	233.75
683.00	225.49
684.00	233.61
685.00	230.30
686.00	226.69
687.00	251.47
688.00	242.94
689.00	241.15
690.00	230.94
691.00	234.97
692.00	218.68
693.00	234.44
694.00	256.10
695.00	251.02
696.00	277.01
697.00	402.87
698.00	289.90
699.00	257.59
700.00	245.15
701.00	238.17
702.00	238.54
703.00	269.47
704.00	263.42
705.00	245.70
706.00	236.35
707.00	333.67
708.00	267.67
709.00	237.44
710.00	228.14
711.00	227.34
712.00	226.64
713.00	227.65
714.00	225.92
715.00	240.21
716.00	233.28
717.00	225.70
718.00	222.19
719.00	215.94
720.00	218.30
721.00	228.63
722.00	227.54
723.00	228.21
724.00	227.45
725.00	249.42
726.00	231.87
727.00	240.21
728.00	252.82
729.00	232.62
730.00	218.03
731.00	222.05
732.00	221.46
733.00	220.53
734.00	220.38
735.00	222.27
736.00	233.78
737.00	244.56
738.00	290.38
739.00	362.79
740.00	257.47
741.00	226.12
742.00	217.98
743.00	217.97
744.00	226.88
745.00	224.40
746.00	214.40
747.00	212.07
748.00	217.80
749.00	217.62
750.00	283.61
751.00	622.94
752.00	490.22
753.00	303.89
754.00	232.57
755.00	213.65
756.00	210.36
757.00	211.93
758.00	218.39
759.00	216.74
760.00	216.86
761.00	209.57
762.00	214.99
763.00	258.50
764.00	1003.47
765.00	508.17
766.00	311.90
767.00	227.96
768.00	208.09
769.00	209.52
770.00	206.77
771.00	209.82
772.00	222.76
773.00	369.74
774.00	265.90
775.00	229.64
776.00	212.63
777.00	244.42
778.00	459.06
779.00	305.04
780.00	239.70
781.00	204.40
782.00	206.74
783.00	200.62
784.00	208.42
785.00	214.62
786.00	212.54
787.00	214.31
788.00	216.88
789.00	221.99
790.00	224.92
791.00	223.19
792.00	219.78
793.00	216.71
794.00	215.03
795.00	332.28
796.00	329.68
797.00	249.84
798.00	226.45
799.00	215.01
800.00	212.67
801.00	317.48
802.00	447.23
803.00	315.98
804.00	247.73
805.00	217.84
806.00	216.33
807.00	201.75
808.00	215.62
809.00	207.49
810.00	222.42
811.00	426.42
812.00	1912.05
813.00	1073.43
814.00	489.09
815.00	313.16
816.00	213.16
817.00	216.90
818.00	207.31
819.00	207.89
820.00	203.01
821.00	200.94
822.00	206.86
823.00	207.14
824.00	204.38
825.00	208.03
826.00	211.55
827.00	282.83
828.00	239.03
829.00	217.67
830.00	213.57
831.00	206.86
832.00	205.80
833.00	203.83
834.00	206.34
835.00	206.62
836.00	203.98
837.00	208.30
838.00	200.60
839.00	206.84
840.00	212.50
841.00	263.41
842.00	287.64
843.00	451.58
844.00	312.92
845.00	265.18
846.00	237.99
847.00	214.85
848.00	206.09
849.00	204.97
850.00	205.24
851.00	203.42
852.00	208.50
853.00	257.11
854.00	220.72
855.00	207.68
856.00	210.17
857.00	202.36
858.00	204.08
859.00	206.02
860.00	196.85
861.00	212.85
862.00	199.98
863.00	204.02
864.00	208.00
865.00	203.00
866.00	206.69
867.00	209.97
868.00	208.01
869.00	206.08
870.00	204.37
871.00	204.91
872.00	206.00
873.00	204.40
874.00	201.00
875.00	198.74
876.00	203.08
877.00	195.49
878.00	199.90
879.00	204.85
880.00	202.03
881.00	203.21
882.00	200.78
883.00	199.28
884.00	198.00
885.00	203.33
886.00	199.52
887.00	196.60
888.00	200.89
889.00	201.15
890.00	202.15
891.00	204.19
892.00	205.03
893.00	201.75
894.00	197.24
895.00	203.88
896.00	195.12
897.00	199.30
898.00	198.89
899.00	196.02
900.00	202.83
901.00	201.21
902.00	202.20
903.00	204.77
904.00	196.73
905.00	204.01
906.00	206.02
907.00	200.09
908.00	201.46
909.00	200.65
910.00	196.54
911.00	207.32
912.00	217.15
913.00	305.74
914.00	263.80
915.00	236.60
916.00	223.92
917.00	211.49
918.00	198.71
919.00	202.94
920.00	201.21
921.00	202.09
922.00	201.26
923.00	215.94
924.00	214.59
925.00	206.78
926.00	199.00
927.00	204.09
928.00	197.41
929.00	195.42
930.00	201.69
931.00	199.57
932.00	199.72
933.00	201.21
934.00	196.13
935.00	196.22
936.00	198.18
937.00	202.90
938.00	201.00
939.00	203.51
940.00	197.26
941.00	204.63
942.00	202.98
943.00	200.81
944.00	202.55
945.00	207.98
946.00	199.55
947.00	200.10
948.00	197.74
949.00	199.18
950.00	193.94
951.00	200.50
952.00	196.05
953.00	202.51
954.00	193.83
955.00	199.57
956.00	200.08
957.00	197.30
958.00	200.81
959.00	198.95
960.00	200.45
961.00	202.32
962.00	201.96
963.00	199.58
964.00	204.12
965.00	197.17
966.00	204.14
967.00	202.17
968.00	203.02
969.00	203.29
970.00	203.90
971.00	199.44
972.00	198.72
973.00	201.94
974.00	199.39
975.00	200.63
976.00	198.19
977.00	197.23
978.00	195.69
979.00	200.03
980.00	198.43
981.00	200.42
982.00	201.58
983.00	206.18
984.00	198.71
985.00	196.58
986.00	198.37
987.00	198.71
988.00	203.13
989.00	202.87
990.00	199.37
991.00	200.73
992.00	196.49
993.00	199.96
994.00	198.53
995.00	200.11
996.00	198.21
997.00	200.18
998.00	199.66
999.00	201.23
1000.00	197.28
>>>>>End Processed Spectral Data<<<<<
