SpectraSuite Data File
++++++++++++++++++++++++++++++++++++
Date: Thu Oct 13 15:02:56 CDT 2011
User: Helimak
Dark Spectrum Present: No
Reference Spectrum Present: No
Number of Sampled Component Spectra: 1
Spectrometers: USB2G37154
Integration Time (usec): 500000 (USB2G37154)
Spectra Averaged: 1 (USB2G37154)
Boxcar Smoothing: 0 (USB2G37154)
Correct for Electrical Dark: No (USB2G37154)
Strobe/Lamp Enabled: No (USB2G37154)
Correct for Detector Non-linearity: No (USB2G37154)
Correct for Stray Light: No (USB2G37154)
Number of Pixels in Processed Spectrum: 651
>>>>>Begin Processed Spectral Data<<<<<
350.00	196.78
351.00	202.18
352.00	200.74
353.00	201.97
354.00	204.54
355.00	208.27
356.00	206.02
357.00	209.93
358.00	224.34
359.00	218.71
360.00	213.89
361.00	215.21
362.00	220.35
363.00	215.35
364.00	222.18
365.00	217.99
366.00	217.48
367.00	215.72
368.00	226.31
369.00	227.32
370.00	233.05
371.00	230.01
372.00	232.86
373.00	233.60
374.00	226.29
375.00	239.65
376.00	235.55
377.00	258.40
378.00	285.66
379.00	291.00
380.00	297.98
381.00	293.68
382.00	301.44
383.00	298.18
384.00	311.27
385.00	324.30
386.00	321.94
387.00	335.88
388.00	311.83
389.00	293.12
390.00	305.62
391.00	315.83
392.00	315.36
393.00	313.12
394.00	325.27
395.00	308.39
396.00	303.98
397.00	293.13
398.00	297.97
399.00	343.51
400.00	398.14
401.00	470.15
402.00	495.38
403.00	507.44
404.00	499.28
405.00	441.05
406.00	460.05
407.00	457.67
408.00	399.26
409.00	436.59
410.00	422.30
411.00	367.27
412.00	362.98
413.00	359.91
414.00	358.20
415.00	484.31
416.00	449.51
417.00	430.99
418.00	497.49
419.00	704.47
420.00	550.90
421.00	422.05
422.00	473.54
423.00	425.81
424.00	467.99
425.00	705.78
426.00	861.49
427.00	887.05
428.00	681.49
429.00	627.14
430.00	576.75
431.00	509.34
432.00	599.20
433.00	843.01
434.00	1467.91
435.00	884.83
436.00	629.22
437.00	597.57
438.00	508.84
439.00	602.49
440.00	547.83
441.00	556.42
442.00	866.29
443.00	589.84
444.00	434.24
445.00	391.82
446.00	399.22
447.00	435.40
448.00	433.11
449.00	447.08
450.00	496.82
451.00	510.61
452.00	523.85
453.00	565.96
454.00	730.37
455.00	673.26
456.00	687.98
457.00	750.19
458.00	891.06
459.00	717.06
460.00	1014.21
461.00	733.95
462.00	544.94
463.00	486.43
464.00	468.75
465.00	588.07
466.00	528.65
467.00	484.87
468.00	518.03
469.00	522.78
470.00	507.81
471.00	532.33
472.00	662.23
473.00	674.88
474.00	539.76
475.00	517.31
476.00	663.55
477.00	524.49
478.00	465.57
479.00	496.42
480.00	1072.56
481.00	670.32
482.00	558.19
483.00	526.80
484.00	642.24
485.00	1073.30
486.00	1124.98
487.00	1617.58
488.00	1228.54
489.00	825.63
490.00	672.40
491.00	660.41
492.00	634.91
493.00	627.35
494.00	574.58
495.00	571.87
496.00	675.72
497.00	604.51
498.00	563.47
499.00	565.54
500.00	673.29
501.00	718.58
502.00	583.04
503.00	587.84
504.00	740.39
505.00	813.86
506.00	804.62
507.00	860.64
508.00	809.30
509.00	706.15
510.00	607.56
511.00	572.01
512.00	564.18
513.00	591.65
514.00	716.08
515.00	578.57
516.00	570.17
517.00	545.87
518.00	608.63
519.00	577.65
520.00	518.36
521.00	517.64
522.00	525.74
523.00	517.72
524.00	540.19
525.00	568.31
526.00	557.27
527.00	520.51
528.00	510.51
529.00	482.87
530.00	496.58
531.00	514.72
532.00	579.84
533.00	630.75
534.00	630.94
535.00	677.86
536.00	630.27
537.00	634.08
538.00	601.89
539.00	587.27
540.00	564.43
541.00	552.20
542.00	564.45
543.00	575.68
544.00	577.47
545.00	586.55
546.00	652.28
547.00	700.77
548.00	629.53
549.00	709.25
550.00	712.15
551.00	665.84
552.00	612.06
553.00	582.99
554.00	569.74
555.00	611.00
556.00	610.55
557.00	556.36
558.00	490.26
559.00	506.80
560.00	558.30
561.00	495.59
562.00	473.15
563.00	463.13
564.00	484.48
565.00	529.66
566.00	538.20
567.00	580.44
568.00	581.87
569.00	566.87
570.00	556.19
571.00	533.70
572.00	465.91
573.00	483.21
574.00	483.11
575.00	464.78
576.00	456.88
577.00	477.17
578.00	486.34
579.00	478.36
580.00	465.73
581.00	434.54
582.00	415.81
583.00	441.33
584.00	449.22
585.00	435.01
586.00	481.26
587.00	488.29
588.00	516.17
589.00	553.25
590.00	480.75
591.00	488.73
592.00	465.00
593.00	453.55
594.00	426.14
595.00	402.10
596.00	394.44
597.00	427.55
598.00	445.22
599.00	463.66
600.00	476.49
601.00	512.07
602.00	537.28
603.00	810.67
604.00	692.20
605.00	556.92
606.00	493.97
607.00	431.75
608.00	381.73
609.00	367.76
610.00	402.97
611.00	468.18
612.00	443.84
613.00	409.83
614.00	403.50
615.00	419.94
616.00	441.90
617.00	493.92
618.00	406.32
619.00	431.62
620.00	431.71
621.00	473.92
622.00	418.87
623.00	373.62
624.00	445.03
625.00	495.71
626.00	472.27
627.00	449.05
628.00	454.20
629.00	448.34
630.00	446.41
631.00	437.47
632.00	386.84
633.00	361.39
634.00	348.78
635.00	350.03
636.00	354.38
637.00	360.21
638.00	362.99
639.00	364.82
640.00	403.65
641.00	429.55
642.00	451.11
643.00	402.51
644.00	385.24
645.00	377.55
646.00	401.98
647.00	392.56
648.00	376.05
649.00	361.69
650.00	335.25
651.00	332.55
652.00	338.53
653.00	339.56
654.00	364.32
655.00	360.55
656.00	1461.62
657.00	1099.48
658.00	593.88
659.00	369.55
660.00	334.09
661.00	314.31
662.00	296.24
663.00	287.73
664.00	368.19
665.00	338.55
666.00	301.83
667.00	307.01
668.00	329.39
669.00	325.27
670.00	308.01
671.00	305.67
672.00	307.45
673.00	322.03
674.00	312.39
675.00	391.35
676.00	404.44
677.00	316.58
678.00	292.01
679.00	289.22
680.00	278.82
681.00	276.74
682.00	281.34
683.00	276.32
684.00	293.59
685.00	287.59
686.00	267.35
687.00	329.18
688.00	313.03
689.00	306.88
690.00	288.16
691.00	287.96
692.00	294.91
693.00	305.44
694.00	350.32
695.00	331.94
696.00	426.03
697.00	731.99
698.00	423.01
699.00	339.07
700.00	318.32
701.00	302.50
702.00	296.83
703.00	384.12
704.00	357.89
705.00	315.09
706.00	303.64
707.00	563.79
708.00	374.11
709.00	305.61
710.00	263.38
711.00	272.14
712.00	275.38
713.00	266.88
714.00	269.51
715.00	306.16
716.00	286.71
717.00	262.73
718.00	252.61
719.00	251.42
720.00	256.57
721.00	275.87
722.00	273.47
723.00	276.54
724.00	283.67
725.00	336.62
726.00	281.47
727.00	315.30
728.00	348.64
729.00	285.60
730.00	268.27
731.00	263.62
732.00	262.68
733.00	252.43
734.00	243.94
735.00	263.86
736.00	289.23
737.00	319.90
738.00	450.21
739.00	624.59
740.00	356.48
741.00	280.16
742.00	249.90
743.00	251.99
744.00	264.87
745.00	268.33
746.00	236.50
747.00	238.12
748.00	241.34
749.00	252.52
750.00	417.37
751.00	1317.60
752.00	949.95
753.00	488.70
754.00	293.52
755.00	243.13
756.00	240.36
757.00	241.32
758.00	253.63
759.00	252.51
760.00	242.87
761.00	242.02
762.00	251.94
763.00	365.16
764.00	2299.72
765.00	1014.31
766.00	500.63
767.00	271.72
768.00	232.99
769.00	229.17
770.00	223.46
771.00	221.45
772.00	268.47
773.00	637.03
774.00	363.84
775.00	286.50
776.00	230.65
777.00	335.02
778.00	896.27
779.00	467.76
780.00	298.58
781.00	231.54
782.00	218.20
783.00	217.07
784.00	227.87
785.00	230.25
786.00	238.57
787.00	249.56
788.00	249.08
789.00	265.93
790.00	266.05
791.00	262.76
792.00	254.70
793.00	245.90
794.00	246.30
795.00	546.68
796.00	532.68
797.00	318.72
798.00	272.85
799.00	235.61
800.00	232.96
801.00	494.14
802.00	850.29
803.00	498.24
804.00	308.32
805.00	248.56
806.00	235.80
807.00	224.76
808.00	233.54
809.00	232.27
810.00	263.55
811.00	793.29
812.00	4037.62
813.00	2562.68
814.00	954.32
815.00	483.07
816.00	244.76
817.00	226.74
818.00	216.39
819.00	221.32
820.00	214.99
821.00	214.89
822.00	217.15
823.00	220.75
824.00	214.14
825.00	238.37
826.00	216.83
827.00	407.03
828.00	302.39
829.00	250.44
830.00	225.41
831.00	217.64
832.00	213.53
833.00	215.01
834.00	215.17
835.00	218.64
836.00	214.52
837.00	211.37
838.00	211.50
839.00	212.81
840.00	217.95
841.00	372.80
842.00	426.58
843.00	834.30
844.00	490.01
845.00	374.11
846.00	299.35
847.00	231.70
848.00	210.45
849.00	210.55
850.00	215.95
851.00	206.98
852.00	230.36
853.00	349.61
854.00	249.40
855.00	224.68
856.00	239.65
857.00	207.40
858.00	216.96
859.00	205.49
860.00	207.79
861.00	224.51
862.00	211.26
863.00	216.99
864.00	226.00
865.00	217.97
866.00	211.23
867.00	225.44
868.00	234.98
869.00	222.98
870.00	217.93
871.00	210.05
872.00	214.93
873.00	211.67
874.00	204.62
875.00	209.96
876.00	206.96
877.00	213.97
878.00	208.53
879.00	209.94
880.00	207.03
881.00	206.71
882.00	205.48
883.00	202.31
884.00	204.00
885.00	204.39
886.00	207.17
887.00	208.52
888.00	204.22
889.00	205.58
890.00	206.26
891.00	215.87
892.00	206.19
893.00	202.84
894.00	210.11
895.00	207.28
896.00	202.52
897.00	198.90
898.00	201.10
899.00	201.87
900.00	208.44
901.00	206.37
902.00	201.31
903.00	212.11
904.00	201.01
905.00	198.51
906.00	214.28
907.00	208.89
908.00	207.18
909.00	204.53
910.00	210.42
911.00	209.53
912.00	257.62
913.00	483.11
914.00	363.17
915.00	293.97
916.00	254.25
917.00	230.72
918.00	207.78
919.00	213.71
920.00	207.21
921.00	213.42
922.00	207.53
923.00	242.62
924.00	234.20
925.00	221.01
926.00	217.01
927.00	215.68
928.00	204.88
929.00	205.99
930.00	199.79
931.00	203.12
932.00	201.52
933.00	201.07
934.00	201.97
935.00	197.38
936.00	198.23
937.00	202.80
938.00	199.74
939.00	202.54
940.00	207.65
941.00	203.69
942.00	205.93
943.00	203.04
944.00	203.70
945.00	212.06
946.00	202.55
947.00	203.27
948.00	197.09
949.00	202.05
950.00	201.57
951.00	201.07
952.00	202.99
953.00	201.74
954.00	197.73
955.00	203.78
956.00	204.76
957.00	206.36
958.00	201.46
959.00	201.92
960.00	199.61
961.00	199.11
962.00	206.12
963.00	200.31
964.00	202.65
965.00	198.08
966.00	202.78
967.00	213.20
968.00	215.98
969.00	208.06
970.00	202.15
971.00	208.78
972.00	203.43
973.00	209.16
974.00	202.05
975.00	196.33
976.00	204.77
977.00	202.60
978.00	204.37
979.00	202.70
980.00	204.07
981.00	197.93
982.00	202.26
983.00	209.28
984.00	202.23
985.00	202.73
986.00	204.99
987.00	204.17
988.00	203.94
989.00	204.54
990.00	198.47
991.00	201.70
992.00	198.83
993.00	207.35
994.00	202.82
995.00	201.44
996.00	198.78
997.00	203.21
998.00	204.07
999.00	203.54
1000.00	199.08
>>>>>End Processed Spectral Data<<<<<
