SpectraSuite Data File
++++++++++++++++++++++++++++++++++++
Date: Thu Oct 13 14:58:09 CDT 2011
User: Helimak
Dark Spectrum Present: No
Reference Spectrum Present: No
Number of Sampled Component Spectra: 1
Spectrometers: USB2G37154
Integration Time (usec): 200000 (USB2G37154)
Spectra Averaged: 1 (USB2G37154)
Boxcar Smoothing: 0 (USB2G37154)
Correct for Electrical Dark: No (USB2G37154)
Strobe/Lamp Enabled: No (USB2G37154)
Correct for Detector Non-linearity: No (USB2G37154)
Correct for Stray Light: No (USB2G37154)
Number of Pixels in Processed Spectrum: 651
>>>>>Begin Processed Spectral Data<<<<<
350.00	200.34
351.00	198.99
352.00	198.40
353.00	197.87
354.00	198.94
355.00	203.27
356.00	204.83
357.00	199.23
358.00	203.82
359.00	202.67
360.00	204.04
361.00	203.90
362.00	208.04
363.00	204.19
364.00	204.85
365.00	208.37
366.00	204.16
367.00	204.90
368.00	209.15
369.00	213.48
370.00	211.02
371.00	212.41
372.00	210.29
373.00	210.70
374.00	207.05
375.00	217.48
376.00	212.23
377.00	219.66
378.00	229.81
379.00	234.02
380.00	232.47
381.00	231.56
382.00	237.48
383.00	234.54
384.00	245.69
385.00	248.27
386.00	246.96
387.00	253.93
388.00	247.34
389.00	236.29
390.00	236.59
391.00	238.86
392.00	243.78
393.00	243.82
394.00	249.04
395.00	243.43
396.00	240.98
397.00	239.73
398.00	235.15
399.00	256.18
400.00	280.63
401.00	305.06
402.00	310.44
403.00	314.95
404.00	311.74
405.00	295.49
406.00	303.02
407.00	306.47
408.00	280.14
409.00	287.52
410.00	291.23
411.00	270.12
412.00	269.49
413.00	261.69
414.00	264.98
415.00	309.81
416.00	296.57
417.00	292.05
418.00	317.52
419.00	398.25
420.00	346.02
421.00	289.28
422.00	304.84
423.00	294.45
424.00	304.04
425.00	403.29
426.00	449.65
427.00	469.64
428.00	392.59
429.00	372.56
430.00	348.87
431.00	317.59
432.00	363.82
433.00	453.64
434.00	698.70
435.00	474.70
436.00	378.87
437.00	359.55
438.00	323.20
439.00	356.16
440.00	331.47
441.00	338.37
442.00	459.44
443.00	353.02
444.00	296.23
445.00	281.91
446.00	274.51
447.00	293.02
448.00	296.24
449.00	290.97
450.00	319.92
451.00	320.80
452.00	332.13
453.00	343.14
454.00	412.10
455.00	380.07
456.00	380.95
457.00	417.02
458.00	463.15
459.00	406.49
460.00	523.88
461.00	411.62
462.00	333.76
463.00	311.61
464.00	302.43
465.00	357.08
466.00	333.28
467.00	311.98
468.00	321.23
469.00	326.86
470.00	321.55
471.00	331.79
472.00	382.02
473.00	385.74
474.00	333.79
475.00	321.91
476.00	387.94
477.00	331.83
478.00	305.98
479.00	319.03
480.00	539.10
481.00	384.92
482.00	341.02
483.00	324.39
484.00	368.74
485.00	532.14
486.00	552.34
487.00	737.13
488.00	600.10
489.00	446.61
490.00	390.24
491.00	378.48
492.00	376.60
493.00	371.35
494.00	343.22
495.00	344.39
496.00	392.62
497.00	357.31
498.00	346.63
499.00	337.90
500.00	382.96
501.00	405.90
502.00	354.01
503.00	348.44
504.00	408.51
505.00	438.07
506.00	433.22
507.00	449.49
508.00	432.12
509.00	388.05
510.00	365.79
511.00	348.91
512.00	338.86
513.00	349.25
514.00	399.15
515.00	358.34
516.00	337.86
517.00	334.19
518.00	364.01
519.00	348.24
520.00	318.74
521.00	316.01
522.00	329.41
523.00	324.52
524.00	330.04
525.00	342.42
526.00	337.71
527.00	320.88
528.00	320.41
529.00	312.23
530.00	316.22
531.00	336.15
532.00	353.89
533.00	356.40
534.00	366.09
535.00	376.03
536.00	362.86
537.00	367.49
538.00	350.77
539.00	346.28
540.00	340.14
541.00	336.30
542.00	342.35
543.00	343.62
544.00	342.45
545.00	349.97
546.00	370.87
547.00	387.91
548.00	364.59
549.00	396.47
550.00	398.24
551.00	380.83
552.00	363.82
553.00	353.62
554.00	335.98
555.00	359.35
556.00	358.52
557.00	334.86
558.00	318.36
559.00	315.24
560.00	341.83
561.00	317.30
562.00	306.86
563.00	299.68
564.00	314.54
565.00	329.60
566.00	335.65
567.00	351.08
568.00	346.73
569.00	342.74
570.00	336.58
571.00	329.77
572.00	306.77
573.00	313.52
574.00	309.00
575.00	296.12
576.00	306.45
577.00	308.95
578.00	314.78
579.00	298.91
580.00	300.48
581.00	289.34
582.00	285.28
583.00	294.55
584.00	303.35
585.00	296.71
586.00	298.73
587.00	314.26
588.00	316.66
589.00	340.30
590.00	314.25
591.00	308.01
592.00	294.70
593.00	302.80
594.00	285.04
595.00	280.88
596.00	275.40
597.00	283.74
598.00	297.94
599.00	297.44
600.00	305.52
601.00	320.05
602.00	331.95
603.00	435.03
604.00	395.35
605.00	340.09
606.00	318.27
607.00	284.05
608.00	267.77
609.00	267.86
610.00	275.73
611.00	302.92
612.00	297.79
613.00	282.16
614.00	282.73
615.00	285.55
616.00	288.98
617.00	310.02
618.00	274.22
619.00	291.37
620.00	292.31
621.00	306.32
622.00	278.48
623.00	270.39
624.00	294.43
625.00	315.59
626.00	303.92
627.00	298.91
628.00	291.53
629.00	295.54
630.00	295.57
631.00	292.11
632.00	276.47
633.00	264.12
634.00	255.82
635.00	258.16
636.00	261.12
637.00	261.99
638.00	263.87
639.00	267.72
640.00	276.79
641.00	283.23
642.00	299.75
643.00	278.11
644.00	271.02
645.00	274.60
646.00	278.08
647.00	269.93
648.00	274.25
649.00	266.54
650.00	249.26
651.00	247.70
652.00	252.50
653.00	255.30
654.00	264.37
655.00	259.84
656.00	669.18
657.00	549.59
658.00	349.96
659.00	267.68
660.00	253.63
661.00	243.01
662.00	238.60
663.00	233.57
664.00	267.86
665.00	254.87
666.00	238.95
667.00	245.11
668.00	245.98
669.00	247.13
670.00	241.63
671.00	234.62
672.00	240.28
673.00	240.01
674.00	240.08
675.00	277.22
676.00	275.59
677.00	246.42
678.00	232.34
679.00	232.09
680.00	228.55
681.00	228.78
682.00	230.95
683.00	228.16
684.00	236.78
685.00	230.37
686.00	218.68
687.00	248.67
688.00	242.97
689.00	238.55
690.00	229.68
691.00	233.10
692.00	234.33
693.00	235.49
694.00	252.39
695.00	257.96
696.00	284.01
697.00	408.97
698.00	284.27
699.00	251.74
700.00	243.01
701.00	237.16
702.00	240.31
703.00	273.54
704.00	258.99
705.00	242.91
706.00	235.45
707.00	344.48
708.00	274.58
709.00	241.65
710.00	223.55
711.00	229.28
712.00	226.18
713.00	223.75
714.00	223.25
715.00	240.85
716.00	234.52
717.00	222.80
718.00	221.82
719.00	219.81
720.00	221.00
721.00	226.92
722.00	225.45
723.00	227.32
724.00	232.15
725.00	250.64
726.00	227.22
727.00	244.48
728.00	262.90
729.00	235.71
730.00	218.48
731.00	228.15
732.00	218.87
733.00	213.50
734.00	216.49
735.00	221.31
736.00	229.44
737.00	249.01
738.00	301.05
739.00	370.09
740.00	266.11
741.00	229.08
742.00	216.98
743.00	216.03
744.00	223.15
745.00	229.14
746.00	209.13
747.00	212.88
748.00	215.51
749.00	218.90
750.00	285.23
751.00	622.80
752.00	498.79
753.00	315.20
754.00	234.58
755.00	220.63
756.00	212.11
757.00	213.66
758.00	218.47
759.00	222.85
760.00	211.12
761.00	216.48
762.00	216.75
763.00	266.57
764.00	991.33
765.00	515.85
766.00	311.83
767.00	227.87
768.00	207.99
769.00	212.04
770.00	209.46
771.00	208.20
772.00	228.25
773.00	376.13
774.00	260.94
775.00	229.32
776.00	208.30
777.00	248.32
778.00	471.08
779.00	301.64
780.00	235.56
781.00	209.08
782.00	206.71
783.00	203.72
784.00	210.27
785.00	216.73
786.00	213.86
787.00	218.95
788.00	211.54
789.00	225.00
790.00	228.14
791.00	218.47
792.00	220.33
793.00	219.62
794.00	214.70
795.00	335.73
796.00	329.11
797.00	248.06
798.00	229.77
799.00	211.68
800.00	211.85
801.00	315.45
802.00	446.95
803.00	319.76
804.00	242.99
805.00	216.70
806.00	212.23
807.00	210.82
808.00	210.34
809.00	213.89
810.00	221.13
811.00	434.41
812.00	1920.66
813.00	1086.73
814.00	495.54
815.00	316.74
816.00	218.51
817.00	207.67
818.00	204.56
819.00	206.53
820.00	208.02
821.00	204.93
822.00	208.57
823.00	202.93
824.00	203.01
825.00	211.96
826.00	207.43
827.00	290.83
828.00	243.73
829.00	219.90
830.00	209.17
831.00	204.78
832.00	202.75
833.00	206.67
834.00	205.16
835.00	208.07
836.00	201.40
837.00	201.75
838.00	204.31
839.00	203.03
840.00	208.27
841.00	261.75
842.00	288.44
843.00	455.90
844.00	318.72
845.00	268.08
846.00	237.83
847.00	209.57
848.00	198.84
849.00	205.32
850.00	201.36
851.00	205.68
852.00	207.32
853.00	261.75
854.00	222.58
855.00	208.86
856.00	209.68
857.00	204.66
858.00	205.76
859.00	203.15
860.00	204.67
861.00	210.58
862.00	206.82
863.00	204.30
864.00	205.66
865.00	203.35
866.00	204.76
867.00	211.08
868.00	208.04
869.00	208.53
870.00	206.18
871.00	205.06
872.00	203.27
873.00	204.45
874.00	203.90
875.00	200.38
876.00	198.22
877.00	201.57
878.00	202.86
879.00	201.80
880.00	201.79
881.00	201.20
882.00	199.90
883.00	202.31
884.00	201.00
885.00	201.69
886.00	202.42
887.00	196.73
888.00	198.19
889.00	205.06
890.00	203.87
891.00	204.73
892.00	197.87
893.00	204.20
894.00	202.33
895.00	201.55
896.00	199.37
897.00	201.98
898.00	199.19
899.00	199.56
900.00	201.69
901.00	199.15
902.00	204.00
903.00	206.93
904.00	196.91
905.00	199.06
906.00	202.63
907.00	201.63
908.00	196.50
909.00	203.90
910.00	204.38
911.00	197.02
912.00	220.25
913.00	311.91
914.00	261.63
915.00	234.48
916.00	220.32
917.00	214.59
918.00	202.92
919.00	203.66
920.00	200.22
921.00	203.60
922.00	202.60
923.00	216.67
924.00	211.60
925.00	209.24
926.00	203.98
927.00	200.24
928.00	202.49
929.00	200.12
930.00	204.06
931.00	200.86
932.00	199.67
933.00	198.44
934.00	199.13
935.00	196.39
936.00	197.00
937.00	200.88
938.00	198.95
939.00	204.43
940.00	200.53
941.00	198.80
942.00	206.98
943.00	198.33
944.00	201.11
945.00	203.55
946.00	198.20
947.00	201.08
948.00	200.24
949.00	195.10
950.00	199.72
951.00	198.34
952.00	197.99
953.00	198.38
954.00	200.44
955.00	198.10
956.00	200.27
957.00	199.63
958.00	198.44
959.00	198.95
960.00	196.50
961.00	197.11
962.00	194.74
963.00	197.33
964.00	197.36
965.00	197.67
966.00	199.45
967.00	201.22
968.00	208.02
969.00	205.00
970.00	202.50
971.00	199.97
972.00	200.02
973.00	198.07
974.00	201.83
975.00	198.08
976.00	201.06
977.00	200.61
978.00	200.08
979.00	203.80
980.00	201.39
981.00	199.03
982.00	199.94
983.00	203.80
984.00	197.12
985.00	199.48
986.00	201.35
987.00	199.85
988.00	202.15
989.00	200.65
990.00	196.01
991.00	200.62
992.00	201.30
993.00	199.28
994.00	196.70
995.00	196.97
996.00	194.89
997.00	201.27
998.00	200.19
999.00	203.11
1000.00	195.16
>>>>>End Processed Spectral Data<<<<<
