SpectraSuite Data File
++++++++++++++++++++++++++++++++++++
Date: Thu Oct 13 14:58:08 CDT 2011
User: Helimak
Dark Spectrum Present: No
Reference Spectrum Present: No
Number of Sampled Component Spectra: 1
Spectrometers: USB2G37154
Integration Time (usec): 200000 (USB2G37154)
Spectra Averaged: 1 (USB2G37154)
Boxcar Smoothing: 0 (USB2G37154)
Correct for Electrical Dark: No (USB2G37154)
Strobe/Lamp Enabled: No (USB2G37154)
Correct for Detector Non-linearity: No (USB2G37154)
Correct for Stray Light: No (USB2G37154)
Number of Pixels in Processed Spectrum: 651
>>>>>Begin Processed Spectral Data<<<<<
350.00	198.28
351.00	198.42
352.00	194.35
353.00	201.27
354.00	204.33
355.00	200.50
356.00	198.25
357.00	201.45
358.00	205.33
359.00	201.39
360.00	205.88
361.00	200.86
362.00	209.29
363.00	199.54
364.00	206.60
365.00	198.71
366.00	206.90
367.00	204.93
368.00	207.71
369.00	206.78
370.00	208.06
371.00	212.73
372.00	212.69
373.00	211.18
374.00	211.67
375.00	212.76
376.00	208.07
377.00	228.20
378.00	228.19
379.00	232.99
380.00	238.08
381.00	235.23
382.00	237.54
383.00	235.85
384.00	243.98
385.00	244.31
386.00	247.87
387.00	249.64
388.00	239.43
389.00	233.03
390.00	244.58
391.00	240.58
392.00	242.72
393.00	240.92
394.00	249.13
395.00	242.00
396.00	235.06
397.00	231.49
398.00	236.68
399.00	254.12
400.00	274.61
401.00	304.75
402.00	315.03
403.00	320.08
404.00	319.77
405.00	294.21
406.00	298.04
407.00	299.68
408.00	277.49
409.00	286.85
410.00	288.76
411.00	264.12
412.00	267.27
413.00	256.09
414.00	263.14
415.00	310.76
416.00	294.46
417.00	287.42
418.00	314.86
419.00	396.37
420.00	344.18
421.00	285.72
422.00	303.90
423.00	290.42
424.00	304.59
425.00	394.48
426.00	460.04
427.00	462.63
428.00	388.54
429.00	366.35
430.00	349.06
431.00	319.48
432.00	350.15
433.00	452.81
434.00	679.67
435.00	460.50
436.00	369.18
437.00	358.88
438.00	316.92
439.00	357.95
440.00	333.16
441.00	333.10
442.00	466.03
443.00	346.49
444.00	288.83
445.00	283.93
446.00	280.00
447.00	295.14
448.00	289.76
449.00	294.94
450.00	313.45
451.00	321.14
452.00	319.82
453.00	339.63
454.00	413.44
455.00	376.92
456.00	377.45
457.00	408.13
458.00	460.54
459.00	408.83
460.00	526.39
461.00	408.26
462.00	329.00
463.00	312.90
464.00	307.83
465.00	346.81
466.00	330.75
467.00	311.97
468.00	317.67
469.00	324.10
470.00	327.73
471.00	329.32
472.00	378.53
473.00	382.66
474.00	335.58
475.00	319.61
476.00	375.34
477.00	327.22
478.00	302.74
479.00	315.68
480.00	530.15
481.00	373.32
482.00	333.31
483.00	332.08
484.00	371.47
485.00	533.82
486.00	543.65
487.00	722.88
488.00	585.73
489.00	440.62
490.00	388.64
491.00	372.31
492.00	368.31
493.00	370.32
494.00	342.30
495.00	345.50
496.00	381.95
497.00	356.21
498.00	336.03
499.00	344.93
500.00	386.17
501.00	406.02
502.00	356.03
503.00	350.40
504.00	409.37
505.00	428.42
506.00	430.10
507.00	448.43
508.00	438.08
509.00	392.67
510.00	359.41
511.00	346.08
512.00	338.64
513.00	353.84
514.00	391.79
515.00	350.22
516.00	346.31
517.00	334.90
518.00	362.99
519.00	356.61
520.00	331.20
521.00	323.06
522.00	326.65
523.00	319.89
524.00	336.15
525.00	339.17
526.00	332.51
527.00	323.50
528.00	319.29
529.00	311.28
530.00	316.94
531.00	322.73
532.00	341.07
533.00	363.72
534.00	365.90
535.00	385.67
536.00	369.77
537.00	357.20
538.00	353.75
539.00	347.80
540.00	339.05
541.00	341.49
542.00	343.65
543.00	338.30
544.00	341.64
545.00	355.62
546.00	378.71
547.00	393.66
548.00	366.53
549.00	392.94
550.00	395.70
551.00	378.93
552.00	350.23
553.00	348.78
554.00	351.30
555.00	365.53
556.00	366.14
557.00	335.32
558.00	312.74
559.00	314.44
560.00	339.00
561.00	315.73
562.00	309.26
563.00	303.49
564.00	309.26
565.00	330.92
566.00	332.74
567.00	352.03
568.00	348.94
569.00	349.11
570.00	337.62
571.00	331.97
572.00	298.48
573.00	313.43
574.00	315.85
575.00	297.57
576.00	299.68
577.00	314.69
578.00	312.84
579.00	306.11
580.00	298.65
581.00	295.23
582.00	284.40
583.00	290.23
584.00	291.17
585.00	287.97
586.00	303.20
587.00	306.04
588.00	329.59
589.00	337.89
590.00	311.77
591.00	309.67
592.00	299.50
593.00	295.05
594.00	291.01
595.00	284.51
596.00	276.11
597.00	286.33
598.00	291.83
599.00	297.81
600.00	308.75
601.00	325.96
602.00	327.08
603.00	426.58
604.00	395.99
605.00	344.48
606.00	319.72
607.00	281.28
608.00	268.35
609.00	264.94
610.00	275.97
611.00	303.19
612.00	298.09
613.00	274.55
614.00	276.38
615.00	290.41
616.00	294.57
617.00	317.00
618.00	277.27
619.00	282.88
620.00	288.92
621.00	300.38
622.00	284.97
623.00	270.15
624.00	292.63
625.00	312.86
626.00	299.07
627.00	293.92
628.00	290.04
629.00	293.99
630.00	298.05
631.00	293.81
632.00	278.32
633.00	263.66
634.00	258.54
635.00	250.09
636.00	256.84
637.00	260.90
638.00	263.68
639.00	269.72
640.00	275.88
641.00	283.84
642.00	291.27
643.00	276.36
644.00	265.82
645.00	275.38
646.00	277.12
647.00	274.84
648.00	268.68
649.00	260.10
650.00	254.13
651.00	252.98
652.00	253.25
653.00	254.25
654.00	260.90
655.00	261.23
656.00	672.63
657.00	546.82
658.00	341.95
659.00	266.61
660.00	249.50
661.00	243.39
662.00	237.79
663.00	237.77
664.00	263.59
665.00	246.27
666.00	239.96
667.00	237.56
668.00	251.64
669.00	250.21
670.00	239.76
671.00	233.68
672.00	238.97
673.00	242.97
674.00	239.34
675.00	279.36
676.00	285.80
677.00	239.86
678.00	238.00
679.00	226.49
680.00	221.87
681.00	229.87
682.00	231.60
683.00	224.40
684.00	233.54
685.00	235.25
686.00	222.66
687.00	244.26
688.00	242.87
689.00	242.60
690.00	228.99
691.00	229.46
692.00	239.09
693.00	235.99
694.00	256.42
695.00	254.00
696.00	286.01
697.00	412.72
698.00	289.13
699.00	251.14
700.00	243.22
701.00	245.12
702.00	236.12
703.00	264.88
704.00	264.71
705.00	241.37
706.00	240.33
707.00	345.13
708.00	269.95
709.00	238.51
710.00	225.24
711.00	228.46
712.00	227.19
713.00	222.97
714.00	223.07
715.00	241.97
716.00	228.53
717.00	222.15
718.00	224.75
719.00	222.27
720.00	220.09
721.00	226.83
722.00	230.78
723.00	224.56
724.00	230.74
725.00	249.81
726.00	225.97
727.00	244.83
728.00	254.16
729.00	230.20
730.00	222.70
731.00	218.47
732.00	221.27
733.00	217.75
734.00	216.71
735.00	216.49
736.00	231.93
737.00	247.22
738.00	301.68
739.00	367.33
740.00	257.99
741.00	225.89
742.00	214.92
743.00	218.01
744.00	224.02
745.00	224.29
746.00	210.85
747.00	215.51
748.00	214.06
749.00	216.86
750.00	289.64
751.00	629.98
752.00	501.00
753.00	319.21
754.00	235.65
755.00	218.36
756.00	213.38
757.00	213.55
758.00	217.13
759.00	221.56
760.00	218.35
761.00	212.86
762.00	218.99
763.00	265.12
764.00	1005.55
765.00	510.05
766.00	321.63
767.00	229.85
768.00	218.82
769.00	209.63
770.00	205.36
771.00	209.47
772.00	220.33
773.00	369.61
774.00	267.90
775.00	232.57
776.00	209.95
777.00	245.77
778.00	458.08
779.00	300.08
780.00	238.10
781.00	208.60
782.00	208.85
783.00	204.28
784.00	208.35
785.00	212.36
786.00	213.90
787.00	215.54
788.00	218.07
789.00	224.99
790.00	220.45
791.00	222.03
792.00	214.14
793.00	218.13
794.00	216.44
795.00	329.00
796.00	324.43
797.00	244.16
798.00	226.36
799.00	211.80
800.00	212.34
801.00	312.76
802.00	459.73
803.00	316.24
804.00	244.41
805.00	212.73
806.00	211.90
807.00	206.82
808.00	208.90
809.00	209.22
810.00	222.97
811.00	429.08
812.00	1908.85
813.00	1082.98
814.00	490.29
815.00	307.96
816.00	214.69
817.00	207.28
818.00	203.31
819.00	209.35
820.00	206.78
821.00	198.96
822.00	202.28
823.00	207.58
824.00	206.78
825.00	213.78
826.00	209.99
827.00	276.23
828.00	238.41
829.00	219.02
830.00	207.23
831.00	202.85
832.00	201.44
833.00	205.84
834.00	201.99
835.00	211.08
836.00	203.12
837.00	209.69
838.00	201.77
839.00	204.00
840.00	206.49
841.00	266.95
842.00	290.95
843.00	453.78
844.00	307.75
845.00	268.76
846.00	244.03
847.00	208.28
848.00	202.42
849.00	203.73
850.00	198.60
851.00	198.56
852.00	212.65
853.00	259.71
854.00	217.87
855.00	208.73
856.00	213.15
857.00	200.12
858.00	205.64
859.00	199.32
860.00	204.63
861.00	208.87
862.00	204.04
863.00	205.01
864.00	207.96
865.00	208.00
866.00	205.69
867.00	208.20
868.00	215.02
869.00	207.15
870.00	203.26
871.00	202.93
872.00	204.88
873.00	206.83
874.00	198.37
875.00	202.41
876.00	208.98
877.00	204.69
878.00	198.88
879.00	197.45
880.00	201.09
881.00	200.21
882.00	199.95
883.00	203.12
884.00	200.01
885.00	199.18
886.00	201.75
887.00	202.94
888.00	195.21
889.00	198.95
890.00	199.87
891.00	199.85
892.00	204.02
893.00	200.22
894.00	199.45
895.00	207.79
896.00	199.34
897.00	199.13
898.00	201.94
899.00	203.34
900.00	196.74
901.00	196.87
902.00	199.63
903.00	202.74
904.00	201.59
905.00	197.06
906.00	205.87
907.00	206.63
908.00	201.63
909.00	197.23
910.00	204.01
911.00	204.13
912.00	225.08
913.00	312.71
914.00	259.60
915.00	237.08
916.00	218.40
917.00	207.48
918.00	204.74
919.00	200.80
920.00	202.06
921.00	204.17
922.00	199.36
923.00	212.84
924.00	209.40
925.00	206.47
926.00	205.00
927.00	205.88
928.00	197.18
929.00	202.00
930.00	200.60
931.00	197.21
932.00	201.34
933.00	196.26
934.00	199.80
935.00	201.19
936.00	200.58
937.00	199.94
938.00	201.20
939.00	201.16
940.00	200.16
941.00	202.30
942.00	207.95
943.00	200.24
944.00	201.08
945.00	203.45
946.00	197.29
947.00	198.14
948.00	200.94
949.00	200.03
950.00	199.22
951.00	195.91
952.00	197.08
953.00	199.73
954.00	196.36
955.00	200.60
956.00	197.09
957.00	198.38
958.00	198.61
959.00	200.98
960.00	199.09
961.00	200.12
962.00	200.09
963.00	199.47
964.00	196.79
965.00	201.31
966.00	198.36
967.00	202.03
968.00	202.99
969.00	201.83
970.00	202.05
971.00	196.77
972.00	201.35
973.00	206.03
974.00	200.40
975.00	195.30
976.00	204.43
977.00	199.88
978.00	196.29
979.00	196.80
980.00	199.29
981.00	201.40
982.00	198.51
983.00	203.83
984.00	193.45
985.00	202.86
986.00	198.85
987.00	196.29
988.00	204.36
989.00	197.71
990.00	193.67
991.00	197.86
992.00	198.03
993.00	198.23
994.00	201.11
995.00	197.98
996.00	200.10
997.00	198.76
998.00	196.18
999.00	198.98
1000.00	196.11
>>>>>End Processed Spectral Data<<<<<
