SpectraSuite Data File
++++++++++++++++++++++++++++++++++++
Date: Thu Oct 13 15:02:55 CDT 2011
User: Helimak
Dark Spectrum Present: No
Reference Spectrum Present: No
Number of Sampled Component Spectra: 1
Spectrometers: USB2G37154
Integration Time (usec): 500000 (USB2G37154)
Spectra Averaged: 1 (USB2G37154)
Boxcar Smoothing: 0 (USB2G37154)
Correct for Electrical Dark: No (USB2G37154)
Strobe/Lamp Enabled: No (USB2G37154)
Correct for Detector Non-linearity: No (USB2G37154)
Correct for Stray Light: No (USB2G37154)
Number of Pixels in Processed Spectrum: 651
>>>>>Begin Processed Spectral Data<<<<<
350.00	200.21
351.00	200.01
352.00	202.12
353.00	200.43
354.00	205.20
355.00	209.78
356.00	211.18
357.00	207.64
358.00	218.92
359.00	213.71
360.00	218.76
361.00	216.41
362.00	217.73
363.00	215.07
364.00	218.08
365.00	218.11
366.00	215.70
367.00	222.72
368.00	220.01
369.00	225.18
370.00	233.09
371.00	223.80
372.00	233.14
373.00	228.47
374.00	230.39
375.00	238.78
376.00	236.47
377.00	252.08
378.00	274.45
379.00	286.82
380.00	293.17
381.00	291.40
382.00	288.56
383.00	301.53
384.00	315.35
385.00	321.21
386.00	321.89
387.00	330.91
388.00	309.35
389.00	293.75
390.00	301.29
391.00	308.84
392.00	316.24
393.00	314.05
394.00	324.94
395.00	313.23
396.00	303.87
397.00	290.91
398.00	293.35
399.00	336.01
400.00	395.93
401.00	460.14
402.00	500.03
403.00	498.03
404.00	492.09
405.00	440.27
406.00	453.04
407.00	453.93
408.00	391.47
409.00	429.68
410.00	418.80
411.00	367.95
412.00	364.94
413.00	352.94
414.00	354.03
415.00	479.16
416.00	453.30
417.00	431.12
418.00	492.93
419.00	698.43
420.00	569.63
421.00	427.56
422.00	466.13
423.00	436.62
424.00	461.14
425.00	695.58
426.00	852.41
427.00	882.51
428.00	678.77
429.00	636.67
430.00	580.59
431.00	504.26
432.00	587.94
433.00	831.17
434.00	1462.49
435.00	877.45
436.00	638.45
437.00	597.12
438.00	503.17
439.00	592.18
440.00	541.95
441.00	552.00
442.00	874.91
443.00	585.10
444.00	436.99
445.00	391.09
446.00	390.01
447.00	430.78
448.00	431.70
449.00	442.02
450.00	495.70
451.00	509.58
452.00	519.27
453.00	558.84
454.00	737.90
455.00	652.66
456.00	671.08
457.00	754.84
458.00	873.44
459.00	716.45
460.00	995.81
461.00	724.24
462.00	537.00
463.00	474.80
464.00	462.16
465.00	580.36
466.00	523.85
467.00	478.74
468.00	514.34
469.00	519.65
470.00	509.71
471.00	536.31
472.00	665.56
473.00	666.36
474.00	539.52
475.00	514.85
476.00	660.58
477.00	532.91
478.00	466.06
479.00	497.45
480.00	1052.64
481.00	662.70
482.00	556.09
483.00	533.72
484.00	629.07
485.00	1062.40
486.00	1095.12
487.00	1591.53
488.00	1227.52
489.00	818.66
490.00	665.35
491.00	648.19
492.00	634.70
493.00	635.51
494.00	576.61
495.00	562.01
496.00	681.80
497.00	597.30
498.00	555.22
499.00	559.20
500.00	679.82
501.00	706.67
502.00	573.05
503.00	587.76
504.00	732.99
505.00	814.89
506.00	798.01
507.00	841.11
508.00	795.81
509.00	700.71
510.00	604.21
511.00	577.03
512.00	569.10
513.00	590.05
514.00	702.28
515.00	587.30
516.00	558.32
517.00	542.48
518.00	610.33
519.00	585.65
520.00	501.30
521.00	515.91
522.00	518.94
523.00	504.30
524.00	528.15
525.00	566.39
526.00	551.00
527.00	506.58
528.00	501.90
529.00	480.39
530.00	487.49
531.00	525.15
532.00	566.25
533.00	609.66
534.00	617.17
535.00	659.99
536.00	631.56
537.00	634.88
538.00	598.83
539.00	587.74
540.00	555.26
541.00	553.40
542.00	575.37
543.00	568.62
544.00	565.01
545.00	588.67
546.00	637.17
547.00	690.64
548.00	624.71
549.00	703.02
550.00	709.95
551.00	663.70
552.00	605.07
553.00	591.39
554.00	560.94
555.00	614.49
556.00	617.25
557.00	565.58
558.00	494.68
559.00	497.68
560.00	555.33
561.00	491.91
562.00	465.79
563.00	455.10
564.00	479.34
565.00	523.64
566.00	542.32
567.00	576.85
568.00	588.97
569.00	562.44
570.00	554.66
571.00	521.44
572.00	465.96
573.00	475.11
574.00	483.10
575.00	469.52
576.00	452.82
577.00	477.35
578.00	480.38
579.00	468.85
580.00	482.69
581.00	429.91
582.00	417.49
583.00	441.41
584.00	440.12
585.00	425.86
586.00	463.08
587.00	474.40
588.00	511.32
589.00	550.00
590.00	491.96
591.00	486.79
592.00	454.15
593.00	456.12
594.00	427.04
595.00	407.72
596.00	402.62
597.00	412.11
598.00	436.01
599.00	458.69
600.00	471.26
601.00	526.61
602.00	533.42
603.00	805.16
604.00	697.10
605.00	549.53
606.00	490.47
607.00	409.15
608.00	377.63
609.00	368.87
610.00	399.80
611.00	466.26
612.00	453.08
613.00	408.16
614.00	398.44
615.00	421.76
616.00	438.13
617.00	489.92
618.00	406.93
619.00	430.68
620.00	430.44
621.00	464.49
622.00	416.48
623.00	373.15
624.00	442.94
625.00	490.86
626.00	458.40
627.00	439.78
628.00	445.09
629.00	451.35
630.00	446.71
631.00	434.58
632.00	380.01
633.00	363.65
634.00	347.53
635.00	340.01
636.00	351.80
637.00	356.99
638.00	372.85
639.00	364.01
640.00	400.25
641.00	414.40
642.00	451.48
643.00	407.65
644.00	377.72
645.00	382.16
646.00	396.07
647.00	387.38
648.00	385.58
649.00	352.80
650.00	343.84
651.00	331.02
652.00	340.09
653.00	339.17
654.00	365.11
655.00	366.77
656.00	1436.70
657.00	1096.35
658.00	582.89
659.00	364.08
660.00	328.48
661.00	314.79
662.00	297.45
663.00	283.86
664.00	361.39
665.00	335.82
666.00	305.14
667.00	302.39
668.00	334.29
669.00	322.97
670.00	314.11
671.00	304.99
672.00	305.22
673.00	311.99
674.00	313.21
675.00	393.87
676.00	405.76
677.00	314.89
678.00	286.18
679.00	284.68
680.00	272.41
681.00	282.86
682.00	286.17
683.00	273.33
684.00	292.94
685.00	287.00
686.00	264.76
687.00	326.94
688.00	312.65
689.00	305.48
690.00	293.63
691.00	286.13
692.00	296.10
693.00	300.36
694.00	353.38
695.00	333.77
696.00	415.03
697.00	734.22
698.00	426.54
699.00	339.50
700.00	317.53
701.00	309.59
702.00	305.97
703.00	379.64
704.00	360.07
705.00	313.04
706.00	297.32
707.00	559.88
708.00	376.88
709.00	307.99
710.00	262.08
711.00	275.62
712.00	273.37
713.00	268.48
714.00	268.70
715.00	302.60
716.00	290.00
717.00	265.06
718.00	248.78
719.00	251.83
720.00	259.97
721.00	272.51
722.00	274.52
723.00	280.88
724.00	285.52
725.00	331.63
726.00	279.68
727.00	307.59
728.00	342.07
729.00	283.68
730.00	265.24
731.00	261.18
732.00	255.65
733.00	248.99
734.00	247.38
735.00	260.99
736.00	286.31
737.00	326.39
738.00	439.98
739.00	622.38
740.00	357.74
741.00	275.95
742.00	248.91
743.00	251.04
744.00	262.95
745.00	278.18
746.00	233.08
747.00	236.49
748.00	242.85
749.00	250.41
750.00	418.23
751.00	1292.46
752.00	962.93
753.00	484.37
754.00	292.74
755.00	241.84
756.00	235.18
757.00	238.50
758.00	246.39
759.00	254.95
760.00	246.20
761.00	238.98
762.00	244.72
763.00	364.13
764.00	2275.40
765.00	1021.96
766.00	498.05
767.00	273.05
768.00	233.24
769.00	225.51
770.00	223.52
771.00	222.00
772.00	266.49
773.00	635.83
774.00	369.44
775.00	283.49
776.00	229.05
777.00	335.34
778.00	886.25
779.00	470.93
780.00	306.57
781.00	232.65
782.00	221.50
783.00	218.95
784.00	225.41
785.00	233.65
786.00	241.97
787.00	245.44
788.00	249.30
789.00	259.97
790.00	271.42
791.00	257.84
792.00	254.83
793.00	247.86
794.00	243.29
795.00	538.00
796.00	526.60
797.00	322.03
798.00	275.86
799.00	235.13
800.00	234.37
801.00	497.99
802.00	835.16
803.00	493.03
804.00	308.04
805.00	250.04
806.00	237.38
807.00	220.87
808.00	230.68
809.00	236.38
810.00	262.73
811.00	790.47
812.00	4018.49
813.00	2520.77
814.00	940.38
815.00	486.13
816.00	240.08
817.00	229.92
818.00	218.94
819.00	224.30
820.00	212.39
821.00	209.84
822.00	217.76
823.00	217.35
824.00	216.35
825.00	236.52
826.00	228.78
827.00	403.28
828.00	300.92
829.00	247.67
830.00	230.75
831.00	215.64
832.00	218.75
833.00	213.33
834.00	217.42
835.00	215.81
836.00	211.85
837.00	216.07
838.00	210.29
839.00	214.64
840.00	222.29
841.00	363.44
842.00	420.45
843.00	836.39
844.00	493.65
845.00	373.00
846.00	295.77
847.00	229.76
848.00	218.88
849.00	206.78
850.00	210.97
851.00	206.75
852.00	231.86
853.00	346.97
854.00	244.52
855.00	224.63
856.00	241.61
857.00	208.50
858.00	215.27
859.00	205.25
860.00	208.68
861.00	226.14
862.00	215.79
863.00	213.73
864.00	225.54
865.00	218.84
866.00	216.05
867.00	223.92
868.00	227.01
869.00	223.11
870.00	218.95
871.00	214.22
872.00	213.81
873.00	208.72
874.00	205.56
875.00	206.68
876.00	213.50
877.00	208.83
878.00	209.81
879.00	205.88
880.00	207.96
881.00	210.20
882.00	204.20
883.00	203.84
884.00	204.01
885.00	206.24
886.00	205.19
887.00	206.83
888.00	204.20
889.00	205.76
890.00	209.66
891.00	212.15
892.00	212.20
893.00	205.20
894.00	199.34
895.00	211.38
896.00	200.96
897.00	203.34
898.00	202.17
899.00	205.95
900.00	203.70
901.00	202.04
902.00	202.01
903.00	213.09
904.00	199.22
905.00	198.96
906.00	212.29
907.00	207.31
908.00	201.09
909.00	203.62
910.00	208.37
911.00	215.03
912.00	248.87
913.00	477.28
914.00	363.41
915.00	286.55
916.00	250.91
917.00	226.60
918.00	205.32
919.00	206.92
920.00	209.85
921.00	213.39
922.00	204.60
923.00	247.76
924.00	228.45
925.00	221.02
926.00	213.01
927.00	219.31
928.00	202.33
929.00	207.80
930.00	204.14
931.00	198.98
932.00	201.53
933.00	203.42
934.00	202.16
935.00	198.25
936.00	203.99
937.00	204.95
938.00	205.04
939.00	202.03
940.00	202.86
941.00	204.59
942.00	207.99
943.00	202.01
944.00	202.96
945.00	208.81
946.00	202.19
947.00	206.07
948.00	201.72
949.00	198.41
950.00	202.50
951.00	201.18
952.00	196.05
953.00	203.16
954.00	197.07
955.00	207.97
956.00	202.37
957.00	206.76
958.00	204.64
959.00	198.89
960.00	202.40
961.00	201.57
962.00	201.95
963.00	198.08
964.00	205.29
965.00	200.92
966.00	201.39
967.00	213.59
968.00	214.99
969.00	207.38
970.00	209.95
971.00	208.15
972.00	201.52
973.00	212.46
974.00	204.45
975.00	203.04
976.00	204.71
977.00	195.95
978.00	202.55
979.00	209.69
980.00	195.96
981.00	198.79
982.00	203.64
983.00	207.46
984.00	198.87
985.00	205.84
986.00	204.79
987.00	200.31
988.00	206.01
989.00	200.76
990.00	196.49
991.00	203.60
992.00	200.31
993.00	205.62
994.00	200.58
995.00	201.00
996.00	204.68
997.00	204.47
998.00	198.04
999.00	201.33
1000.00	199.26
>>>>>End Processed Spectral Data<<<<<
