SpectraSuite Data File
++++++++++++++++++++++++++++++++++++
Date: Wed Jan 25 13:26:51 CST 2012
User: Helimak
Dark Spectrum Present: No
Reference Spectrum Present: No
Number of Sampled Component Spectra: 1
Spectrometers: USB2G37154
Integration Time (usec): 200000 (USB2G37154)
Spectra Averaged: 50 (USB2G37154)
Boxcar Smoothing: 0 (USB2G37154)
Correct for Electrical Dark: No (USB2G37154)
Strobe/Lamp Enabled: No (USB2G37154)
Correct for Detector Non-linearity: No (USB2G37154)
Correct for Stray Light: No (USB2G37154)
Number of Pixels in Processed Spectrum: 651
>>>>>Begin Processed Spectral Data<<<<<
350.00	215.06
351.00	217.01
352.00	215.73
353.00	215.39
354.00	216.83
355.00	217.22
356.00	216.48
357.00	215.66
358.00	219.08
359.00	215.86
360.00	216.20
361.00	216.10
362.00	218.65
363.00	216.36
364.00	217.98
365.00	217.13
366.00	216.30
367.00	217.28
368.00	217.42
369.00	217.89
370.00	218.27
371.00	217.18
372.00	217.61
373.00	218.55
374.00	219.33
375.00	221.78
376.00	218.19
377.00	218.67
378.00	221.34
379.00	218.48
380.00	218.49
381.00	218.09
382.00	219.86
383.00	220.60
384.00	219.15
385.00	219.17
386.00	219.33
387.00	220.17
388.00	219.21
389.00	219.80
390.00	220.62
391.00	221.54
392.00	220.32
393.00	220.73
394.00	222.13
395.00	221.31
396.00	222.10
397.00	222.03
398.00	222.26
399.00	223.50
400.00	223.30
401.00	224.44
402.00	225.40
403.00	228.36
404.00	228.86
405.00	231.28
406.00	232.86
407.00	235.34
408.00	237.43
409.00	240.59
410.00	244.60
411.00	248.21
412.00	253.30
413.00	257.73
414.00	261.99
415.00	267.33
416.00	271.30
417.00	278.78
418.00	283.45
419.00	289.30
420.00	294.53
421.00	300.21
422.00	308.48
423.00	314.96
424.00	321.34
425.00	329.02
426.00	334.75
427.00	346.75
428.00	347.42
429.00	352.78
430.00	356.47
431.00	359.57
432.00	368.00
433.00	366.00
434.00	364.98
435.00	370.47
436.00	371.00
437.00	376.31
438.00	370.35
439.00	374.07
440.00	375.64
441.00	378.71
442.00	378.52
443.00	383.44
444.00	387.75
445.00	390.71
446.00	397.33
447.00	403.14
448.00	407.95
449.00	415.44
450.00	422.83
451.00	433.80
452.00	443.31
453.00	453.99
454.00	458.92
455.00	469.93
456.00	481.10
457.00	486.98
458.00	489.63
459.00	495.52
460.00	498.93
461.00	499.15
462.00	505.10
463.00	501.03
464.00	499.06
465.00	504.57
466.00	505.33
467.00	500.78
468.00	503.60
469.00	506.13
470.00	507.67
471.00	511.73
472.00	519.96
473.00	523.73
474.00	533.02
475.00	539.18
476.00	551.33
477.00	565.06
478.00	576.94
479.00	589.83
480.00	606.81
481.00	618.56
482.00	639.28
483.00	654.18
484.00	679.11
485.00	700.96
486.00	721.38
487.00	741.64
488.00	763.00
489.00	788.78
490.00	806.22
491.00	824.69
492.00	846.59
493.00	860.99
494.00	874.92
495.00	881.31
496.00	890.13
497.00	898.03
498.00	901.95
499.00	901.85
500.00	907.93
501.00	905.55
502.00	901.71
503.00	906.82
504.00	908.11
505.00	901.96
506.00	909.36
507.00	912.88
508.00	910.76
509.00	908.89
510.00	914.30
511.00	923.25
512.00	918.34
513.00	928.55
514.00	932.76
515.00	941.76
516.00	945.35
517.00	954.51
518.00	970.32
519.00	985.41
520.00	996.88
521.00	1008.13
522.00	1023.16
523.00	1037.46
524.00	1053.91
525.00	1069.84
526.00	1089.45
527.00	1110.45
528.00	1130.77
529.00	1156.20
530.00	1168.77
531.00	1195.37
532.00	1213.83
533.00	1224.82
534.00	1242.70
535.00	1260.98
536.00	1269.65
537.00	1287.28
538.00	1301.24
539.00	1298.72
540.00	1303.49
541.00	1316.71
542.00	1317.36
543.00	1313.98
544.00	1316.66
545.00	1308.47
546.00	1309.24
547.00	1299.24
548.00	1291.23
549.00	1291.47
550.00	1284.97
551.00	1277.87
552.00	1278.31
553.00	1277.50
554.00	1285.49
555.00	1282.30
556.00	1281.85
557.00	1286.21
558.00	1285.01
559.00	1289.02
560.00	1295.59
561.00	1300.20
562.00	1317.40
563.00	1315.89
564.00	1331.00
565.00	1342.95
566.00	1352.56
567.00	1361.28
568.00	1365.20
569.00	1378.17
570.00	1394.80
571.00	1427.22
572.00	1422.09
573.00	1445.43
574.00	1455.21
575.00	1467.12
576.00	1485.52
577.00	1493.32
578.00	1509.53
579.00	1525.06
580.00	1538.04
581.00	1547.12
582.00	1558.18
583.00	1568.98
584.00	1581.91
585.00	1570.02
586.00	1575.94
587.00	1581.04
588.00	1581.55
589.00	1582.87
590.00	1581.58
591.00	1580.97
592.00	1578.38
593.00	1576.16
594.00	1578.05
595.00	1573.80
596.00	1567.82
597.00	1564.65
598.00	1562.62
599.00	1565.68
600.00	1563.27
601.00	1559.63
602.00	1547.17
603.00	1558.48
604.00	1555.96
605.00	1551.99
606.00	1558.94
607.00	1564.64
608.00	1561.61
609.00	1562.15
610.00	1562.10
611.00	1585.65
612.00	1585.84
613.00	1585.53
614.00	1588.13
615.00	1596.96
616.00	1601.11
617.00	1603.82
618.00	1607.31
619.00	1631.05
620.00	1622.86
621.00	1636.02
622.00	1640.49
623.00	1649.17
624.00	1661.70
625.00	1667.64
626.00	1676.18
627.00	1690.21
628.00	1697.21
629.00	1709.14
630.00	1712.19
631.00	1732.27
632.00	1730.80
633.00	1724.47
634.00	1734.29
635.00	1737.75
636.00	1748.53
637.00	1742.34
638.00	1750.52
639.00	1740.78
640.00	1754.68
641.00	1746.54
642.00	1731.77
643.00	1735.11
644.00	1726.42
645.00	1717.42
646.00	1709.45
647.00	1703.58
648.00	1692.11
649.00	1683.12
650.00	1676.00
651.00	1667.99
652.00	1654.26
653.00	1645.40
654.00	1633.09
655.00	1619.70
656.00	1609.34
657.00	1599.80
658.00	1598.43
659.00	1579.94
660.00	1573.01
661.00	1562.11
662.00	1558.39
663.00	1561.99
664.00	1548.36
665.00	1530.30
666.00	1527.66
667.00	1521.02
668.00	1515.22
669.00	1503.72
670.00	1509.42
671.00	1502.31
672.00	1492.25
673.00	1495.09
674.00	1487.31
675.00	1477.70
676.00	1487.71
677.00	1480.01
678.00	1483.59
679.00	1479.65
680.00	1472.80
681.00	1474.24
682.00	1479.92
683.00	1469.35
684.00	1479.43
685.00	1475.58
686.00	1466.25
687.00	1471.07
688.00	1473.52
689.00	1480.06
690.00	1481.66
691.00	1482.28
692.00	1480.79
693.00	1483.21
694.00	1489.10
695.00	1494.13
696.00	1494.68
697.00	1501.24
698.00	1496.61
699.00	1501.04
700.00	1495.67
701.00	1500.38
702.00	1497.66
703.00	1495.10
704.00	1491.62
705.00	1497.85
706.00	1481.92
707.00	1479.39
708.00	1480.41
709.00	1482.39
710.00	1472.60
711.00	1460.44
712.00	1458.02
713.00	1440.34
714.00	1431.39
715.00	1425.35
716.00	1408.71
717.00	1398.01
718.00	1381.92
719.00	1365.79
720.00	1351.68
721.00	1334.80
722.00	1311.87
723.00	1299.12
724.00	1286.20
725.00	1289.86
726.00	1259.59
727.00	1242.70
728.00	1237.82
729.00	1229.18
730.00	1222.86
731.00	1210.54
732.00	1204.89
733.00	1201.67
734.00	1183.46
735.00	1183.42
736.00	1166.67
737.00	1152.26
738.00	1161.46
739.00	1138.80
740.00	1144.72
741.00	1130.79
742.00	1110.92
743.00	1110.64
744.00	1099.91
745.00	1098.23
746.00	1075.52
747.00	1078.36
748.00	1065.45
749.00	1056.80
750.00	1044.73
751.00	1048.31
752.00	1036.02
753.00	1042.23
754.00	1032.12
755.00	1024.60
756.00	1013.32
757.00	1011.78
758.00	1009.88
759.00	1012.92
760.00	996.04
761.00	997.45
762.00	990.80
763.00	980.97
764.00	968.99
765.00	966.40
766.00	965.69
767.00	962.57
768.00	950.98
769.00	954.28
770.00	943.49
771.00	943.16
772.00	938.58
773.00	936.86
774.00	929.64
775.00	925.58
776.00	915.12
777.00	913.56
778.00	903.10
779.00	907.35
780.00	895.76
781.00	896.48
782.00	894.14
783.00	896.21
784.00	897.93
785.00	901.99
786.00	905.34
787.00	906.30
788.00	913.62
789.00	920.57
790.00	917.58
791.00	922.26
792.00	925.21
793.00	930.88
794.00	932.55
795.00	935.89
796.00	933.75
797.00	935.90
798.00	941.54
799.00	937.23
800.00	938.21
801.00	933.39
802.00	930.68
803.00	929.58
804.00	921.25
805.00	918.11
806.00	917.82
807.00	911.35
808.00	908.21
809.00	899.64
810.00	892.77
811.00	883.04
812.00	877.76
813.00	873.34
814.00	861.08
815.00	852.58
816.00	844.80
817.00	839.27
818.00	828.68
819.00	817.86
820.00	810.04
821.00	802.29
822.00	793.28
823.00	784.79
824.00	772.66
825.00	772.63
826.00	758.41
827.00	749.06
828.00	744.00
829.00	734.58
830.00	723.58
831.00	714.17
832.00	708.12
833.00	702.48
834.00	690.70
835.00	689.73
836.00	679.64
837.00	669.40
838.00	664.49
839.00	658.21
840.00	646.70
841.00	641.13
842.00	638.74
843.00	632.94
844.00	624.08
845.00	618.18
846.00	612.04
847.00	600.80
848.00	598.39
849.00	593.62
850.00	590.35
851.00	582.57
852.00	575.72
853.00	573.75
854.00	564.10
855.00	560.95
856.00	559.35
857.00	552.00
858.00	546.70
859.00	540.89
860.00	536.19
861.00	540.07
862.00	529.32
863.00	524.31
864.00	521.71
865.00	515.96
866.00	511.56
867.00	509.42
868.00	505.66
869.00	496.23
870.00	491.21
871.00	488.10
872.00	486.62
873.00	482.12
874.00	471.73
875.00	470.21
876.00	465.42
877.00	462.94
878.00	455.85
879.00	454.07
880.00	451.86
881.00	449.28
882.00	445.91
883.00	440.65
884.00	438.84
885.00	437.06
886.00	433.54
887.00	431.70
888.00	428.00
889.00	426.39
890.00	425.15
891.00	424.81
892.00	422.35
893.00	419.77
894.00	418.68
895.00	421.81
896.00	417.50
897.00	414.66
898.00	417.52
899.00	415.22
900.00	415.93
901.00	417.80
902.00	415.83
903.00	421.34
904.00	416.04
905.00	415.90
906.00	419.77
907.00	416.04
908.00	415.73
909.00	414.60
910.00	415.15
911.00	413.87
912.00	412.76
913.00	413.34
914.00	411.34
915.00	409.83
916.00	409.44
917.00	406.71
918.00	402.00
919.00	401.16
920.00	396.46
921.00	396.67
922.00	391.15
923.00	387.48
924.00	384.15
925.00	381.21
926.00	376.64
927.00	372.25
928.00	366.66
929.00	362.89
930.00	360.04
931.00	354.35
932.00	349.55
933.00	346.77
934.00	339.14
935.00	332.90
936.00	325.32
937.00	317.83
938.00	310.35
939.00	300.71
940.00	291.02
941.00	283.93
942.00	279.53
943.00	271.77
944.00	267.48
945.00	270.41
946.00	263.99
947.00	263.90
948.00	262.53
949.00	263.67
950.00	264.48
951.00	263.88
952.00	264.18
953.00	265.04
954.00	264.90
955.00	267.84
956.00	266.42
957.00	267.10
958.00	267.04
959.00	266.06
960.00	266.50
961.00	265.66
962.00	265.47
963.00	265.46
964.00	264.49
965.00	263.08
966.00	262.22
967.00	262.78
968.00	260.81
969.00	259.27
970.00	257.87
971.00	258.18
972.00	256.52
973.00	258.65
974.00	254.82
975.00	253.21
976.00	254.18
977.00	250.19
978.00	250.40
979.00	249.47
980.00	247.39
981.00	246.19
982.00	245.81
983.00	246.77
984.00	244.37
985.00	244.00
986.00	241.54
987.00	240.28
988.00	241.56
989.00	238.82
990.00	237.24
991.00	237.08
992.00	236.04
993.00	236.08
994.00	235.57
995.00	234.67
996.00	233.94
997.00	233.31
998.00	232.49
999.00	232.05
1000.00	229.91
>>>>>End Processed Spectral Data<<<<<
