SpectraSuite Data File
++++++++++++++++++++++++++++++++++++
Date: Fri Jan 27 15:53:01 CST 2012
User: Helimak
Dark Spectrum Present: No
Reference Spectrum Present: No
Number of Sampled Component Spectra: 1
Spectrometers: USB2G37154
Integration Time (usec): 150000 (USB2G37154)
Spectra Averaged: 200 (USB2G37154)
Boxcar Smoothing: 0 (USB2G37154)
Correct for Electrical Dark: No (USB2G37154)
Strobe/Lamp Enabled: No (USB2G37154)
Correct for Detector Non-linearity: No (USB2G37154)
Correct for Stray Light: No (USB2G37154)
Number of Pixels in Processed Spectrum: 651
>>>>>Begin Processed Spectral Data<<<<<
350.00	213.34
351.00	214.43
352.00	213.56
353.00	213.87
354.00	214.76
355.00	215.32
356.00	214.91
357.00	214.02
358.00	215.85
359.00	214.65
360.00	215.19
361.00	214.75
362.00	216.74
363.00	214.62
364.00	216.71
365.00	215.25
366.00	215.04
367.00	215.04
368.00	215.44
369.00	215.59
370.00	216.13
371.00	215.29
372.00	216.14
373.00	216.46
374.00	217.12
375.00	218.72
376.00	216.01
377.00	216.64
378.00	218.88
379.00	216.54
380.00	216.60
381.00	216.76
382.00	216.95
383.00	218.12
384.00	216.97
385.00	217.61
386.00	217.26
387.00	217.84
388.00	217.12
389.00	217.33
390.00	217.90
391.00	218.16
392.00	217.97
393.00	217.98
394.00	219.00
395.00	218.58
396.00	218.55
397.00	219.10
398.00	219.21
399.00	219.98
400.00	220.14
401.00	220.06
402.00	221.28
403.00	222.73
404.00	223.30
405.00	224.66
406.00	225.36
407.00	227.30
408.00	228.53
409.00	230.73
410.00	232.12
411.00	234.14
412.00	236.95
413.00	239.78
414.00	241.86
415.00	245.32
416.00	247.68
417.00	251.61
418.00	254.54
419.00	257.55
420.00	261.27
421.00	263.96
422.00	268.95
423.00	272.66
424.00	276.75
425.00	281.06
426.00	284.49
427.00	291.94
428.00	292.21
429.00	294.94
430.00	297.27
431.00	299.21
432.00	304.76
433.00	302.85
434.00	302.06
435.00	307.29
436.00	306.52
437.00	310.22
438.00	305.32
439.00	308.10
440.00	308.28
441.00	310.63
442.00	310.27
443.00	312.17
444.00	315.22
445.00	316.85
446.00	320.34
447.00	323.49
448.00	326.60
449.00	331.33
450.00	335.26
451.00	341.64
452.00	347.02
453.00	353.69
454.00	356.06
455.00	362.39
456.00	368.42
457.00	372.53
458.00	374.38
459.00	376.49
460.00	378.65
461.00	379.17
462.00	382.34
463.00	379.89
464.00	379.12
465.00	382.24
466.00	383.20
467.00	379.83
468.00	381.97
469.00	382.86
470.00	383.57
471.00	385.83
472.00	390.50
473.00	393.84
474.00	398.46
475.00	402.18
476.00	409.43
477.00	415.92
478.00	422.87
479.00	430.36
480.00	439.52
481.00	447.14
482.00	457.84
483.00	466.99
484.00	480.48
485.00	492.15
486.00	504.60
487.00	515.48
488.00	527.24
489.00	542.20
490.00	551.15
491.00	562.28
492.00	573.33
493.00	582.62
494.00	589.64
495.00	592.98
496.00	597.46
497.00	602.50
498.00	605.14
499.00	605.12
500.00	606.43
501.00	606.13
502.00	604.63
503.00	606.58
504.00	607.77
505.00	604.77
506.00	608.86
507.00	609.45
508.00	608.84
509.00	609.65
510.00	610.28
511.00	616.01
512.00	615.56
513.00	620.16
514.00	622.06
515.00	626.37
516.00	629.99
517.00	634.52
518.00	643.19
519.00	651.40
520.00	658.33
521.00	664.62
522.00	672.98
523.00	681.91
524.00	692.36
525.00	701.33
526.00	711.74
527.00	723.60
528.00	735.83
529.00	749.52
530.00	756.01
531.00	768.42
532.00	781.72
533.00	788.47
534.00	798.59
535.00	809.88
536.00	815.29
537.00	823.06
538.00	830.63
539.00	830.20
540.00	834.03
541.00	841.14
542.00	844.48
543.00	845.31
544.00	843.37
545.00	837.64
546.00	839.40
547.00	832.55
548.00	826.70
549.00	828.25
550.00	822.84
551.00	821.76
552.00	820.55
553.00	819.23
554.00	822.27
555.00	822.17
556.00	824.06
557.00	823.72
558.00	821.12
559.00	825.27
560.00	829.55
561.00	832.82
562.00	841.57
563.00	839.39
564.00	847.74
565.00	854.94
566.00	860.50
567.00	864.99
568.00	867.68
569.00	873.02
570.00	884.29
571.00	901.83
572.00	898.53
573.00	910.94
574.00	917.82
575.00	921.54
576.00	933.78
577.00	937.13
578.00	946.46
579.00	956.79
580.00	962.36
581.00	965.52
582.00	970.54
583.00	978.60
584.00	985.16
585.00	977.96
586.00	981.70
587.00	982.16
588.00	983.00
589.00	984.46
590.00	981.01
591.00	980.49
592.00	977.85
593.00	976.73
594.00	977.34
595.00	973.92
596.00	970.88
597.00	967.11
598.00	965.95
599.00	966.60
600.00	965.56
601.00	962.50
602.00	957.71
603.00	961.61
604.00	959.91
605.00	955.70
606.00	960.46
607.00	961.11
608.00	959.63
609.00	960.32
610.00	959.06
611.00	974.35
612.00	974.71
613.00	972.77
614.00	972.75
615.00	975.61
616.00	976.80
617.00	978.06
618.00	981.76
619.00	997.05
620.00	988.75
621.00	995.50
622.00	998.00
623.00	1001.06
624.00	1007.70
625.00	1011.67
626.00	1013.99
627.00	1019.54
628.00	1025.45
629.00	1032.10
630.00	1032.26
631.00	1043.64
632.00	1042.23
633.00	1038.36
634.00	1046.02
635.00	1047.16
636.00	1049.41
637.00	1044.30
638.00	1050.21
639.00	1046.17
640.00	1052.78
641.00	1046.94
642.00	1039.55
643.00	1039.04
644.00	1033.86
645.00	1030.86
646.00	1025.06
647.00	1020.44
648.00	1014.62
649.00	1009.38
650.00	1003.69
651.00	1000.23
652.00	991.97
653.00	985.53
654.00	978.44
655.00	972.87
656.00	966.79
657.00	963.53
658.00	958.56
659.00	951.19
660.00	949.05
661.00	940.38
662.00	936.62
663.00	938.53
664.00	932.81
665.00	921.66
666.00	921.23
667.00	917.01
668.00	914.94
669.00	907.43
670.00	907.98
671.00	905.74
672.00	901.25
673.00	901.01
674.00	897.70
675.00	893.09
676.00	897.38
677.00	893.42
678.00	894.77
679.00	891.76
680.00	889.31
681.00	890.56
682.00	892.74
683.00	885.79
684.00	894.54
685.00	892.93
686.00	885.41
687.00	887.02
688.00	888.78
689.00	893.03
690.00	892.82
691.00	892.87
692.00	890.64
693.00	893.56
694.00	897.57
695.00	899.18
696.00	898.55
697.00	902.82
698.00	900.17
699.00	901.77
700.00	900.15
701.00	900.69
702.00	900.15
703.00	898.22
704.00	895.86
705.00	900.34
706.00	889.82
707.00	889.32
708.00	888.12
709.00	889.10
710.00	883.70
711.00	880.88
712.00	877.81
713.00	866.93
714.00	862.12
715.00	860.84
716.00	851.42
717.00	845.72
718.00	836.19
719.00	828.87
720.00	818.27
721.00	809.53
722.00	798.37
723.00	792.61
724.00	785.05
725.00	790.35
726.00	769.58
727.00	760.22
728.00	758.92
729.00	751.88
730.00	747.10
731.00	743.68
732.00	740.82
733.00	736.33
734.00	728.48
735.00	727.74
736.00	718.48
737.00	712.44
738.00	715.53
739.00	705.15
740.00	705.90
741.00	700.07
742.00	689.34
743.00	688.83
744.00	682.48
745.00	683.11
746.00	670.63
747.00	669.87
748.00	663.52
749.00	658.11
750.00	652.51
751.00	653.20
752.00	645.95
753.00	649.25
754.00	643.17
755.00	639.63
756.00	632.35
757.00	633.18
758.00	632.38
759.00	634.29
760.00	626.11
761.00	624.10
762.00	621.20
763.00	617.43
764.00	608.37
765.00	608.14
766.00	608.33
767.00	605.32
768.00	600.48
769.00	600.39
770.00	596.55
771.00	594.93
772.00	593.22
773.00	590.16
774.00	587.43
775.00	585.16
776.00	578.90
777.00	579.15
778.00	573.04
779.00	576.63
780.00	569.45
781.00	570.10
782.00	567.28
783.00	568.47
784.00	568.75
785.00	570.60
786.00	571.49
787.00	572.18
788.00	576.77
789.00	580.03
790.00	578.54
791.00	580.52
792.00	581.87
793.00	583.84
794.00	584.01
795.00	586.30
796.00	584.87
797.00	586.82
798.00	587.79
799.00	586.09
800.00	586.04
801.00	583.62
802.00	582.94
803.00	582.62
804.00	577.31
805.00	575.35
806.00	575.78
807.00	572.18
808.00	570.53
809.00	565.30
810.00	562.36
811.00	558.70
812.00	555.25
813.00	552.03
814.00	546.46
815.00	542.67
816.00	537.72
817.00	534.40
818.00	529.25
819.00	524.25
820.00	519.93
821.00	514.36
822.00	511.63
823.00	507.35
824.00	500.90
825.00	501.12
826.00	494.16
827.00	489.45
828.00	484.40
829.00	481.21
830.00	474.51
831.00	470.79
832.00	467.64
833.00	464.65
834.00	458.10
835.00	457.79
836.00	452.46
837.00	447.77
838.00	444.62
839.00	441.46
840.00	437.03
841.00	433.88
842.00	432.20
843.00	428.62
844.00	424.64
845.00	421.27
846.00	418.07
847.00	412.78
848.00	410.97
849.00	407.64
850.00	406.99
851.00	403.49
852.00	400.69
853.00	398.83
854.00	394.59
855.00	390.94
856.00	392.92
857.00	387.60
858.00	385.48
859.00	382.44
860.00	380.25
861.00	380.94
862.00	375.25
863.00	373.16
864.00	372.33
865.00	369.18
866.00	365.68
867.00	365.11
868.00	362.91
869.00	358.35
870.00	356.05
871.00	354.20
872.00	353.19
873.00	350.71
874.00	346.35
875.00	345.11
876.00	342.98
877.00	341.63
878.00	338.10
879.00	336.13
880.00	335.45
881.00	334.40
882.00	332.40
883.00	330.39
884.00	329.45
885.00	328.03
886.00	325.87
887.00	324.81
888.00	322.90
889.00	322.03
890.00	321.78
891.00	322.36
892.00	320.34
893.00	318.56
894.00	317.67
895.00	320.56
896.00	317.07
897.00	316.15
898.00	317.34
899.00	316.42
900.00	317.02
901.00	317.78
902.00	316.74
903.00	320.32
904.00	316.45
905.00	316.65
906.00	318.92
907.00	317.21
908.00	316.20
909.00	315.20
910.00	315.51
911.00	315.25
912.00	315.03
913.00	314.42
914.00	313.61
915.00	312.35
916.00	312.54
917.00	311.57
918.00	309.07
919.00	308.84
920.00	306.37
921.00	306.18
922.00	302.86
923.00	302.33
924.00	300.10
925.00	298.66
926.00	296.04
927.00	293.42
928.00	290.52
929.00	289.19
930.00	287.62
931.00	284.47
932.00	281.69
933.00	280.10
934.00	276.45
935.00	273.58
936.00	269.65
937.00	265.53
938.00	262.11
939.00	256.78
940.00	252.10
941.00	248.95
942.00	246.68
943.00	242.94
944.00	240.33
945.00	242.31
946.00	238.07
947.00	238.43
948.00	237.79
949.00	238.27
950.00	238.51
951.00	238.94
952.00	238.61
953.00	239.06
954.00	238.45
955.00	240.53
956.00	239.58
957.00	239.96
958.00	240.01
959.00	239.59
960.00	239.59
961.00	238.49
962.00	239.24
963.00	238.51
964.00	238.74
965.00	237.35
966.00	237.31
967.00	237.61
968.00	236.84
969.00	236.11
970.00	235.33
971.00	235.71
972.00	234.85
973.00	235.68
974.00	234.39
975.00	232.89
976.00	233.88
977.00	231.22
978.00	231.68
979.00	230.99
980.00	229.99
981.00	229.32
982.00	229.55
983.00	230.72
984.00	228.24
985.00	228.58
986.00	227.32
987.00	226.86
988.00	227.61
989.00	226.31
990.00	224.83
991.00	225.25
992.00	224.30
993.00	224.90
994.00	224.13
995.00	223.27
996.00	223.28
997.00	223.13
998.00	222.51
999.00	222.67
1000.00	221.07
>>>>>End Processed Spectral Data<<<<<
