SpectraSuite Data File
++++++++++++++++++++++++++++++++++++
Date: Fri Jan 27 16:13:30 CST 2012
User: Helimak
Dark Spectrum Present: No
Reference Spectrum Present: No
Number of Sampled Component Spectra: 1
Spectrometers: USB2G37154
Integration Time (usec): 150000 (USB2G37154)
Spectra Averaged: 200 (USB2G37154)
Boxcar Smoothing: 0 (USB2G37154)
Correct for Electrical Dark: No (USB2G37154)
Strobe/Lamp Enabled: No (USB2G37154)
Correct for Detector Non-linearity: No (USB2G37154)
Correct for Stray Light: No (USB2G37154)
Number of Pixels in Processed Spectrum: 651
>>>>>Begin Processed Spectral Data<<<<<
350.00	213.52
351.00	214.54
352.00	213.94
353.00	214.31
354.00	214.69
355.00	215.48
356.00	215.20
357.00	214.24
358.00	216.27
359.00	214.99
360.00	215.06
361.00	215.00
362.00	216.92
363.00	214.78
364.00	216.83
365.00	215.76
366.00	215.68
367.00	215.50
368.00	215.69
369.00	216.24
370.00	216.29
371.00	215.73
372.00	216.53
373.00	216.57
374.00	217.43
375.00	218.87
376.00	216.33
377.00	216.84
378.00	219.12
379.00	216.90
380.00	216.94
381.00	217.04
382.00	217.60
383.00	218.96
384.00	217.22
385.00	217.91
386.00	217.42
387.00	217.96
388.00	217.68
389.00	217.77
390.00	218.44
391.00	218.67
392.00	218.33
393.00	218.78
394.00	219.35
395.00	218.98
396.00	219.33
397.00	219.77
398.00	219.37
399.00	220.60
400.00	220.41
401.00	220.55
402.00	221.64
403.00	222.97
404.00	223.74
405.00	225.51
406.00	226.11
407.00	227.94
408.00	229.11
409.00	231.39
410.00	233.42
411.00	235.14
412.00	238.17
413.00	241.35
414.00	243.29
415.00	246.68
416.00	249.30
417.00	253.33
418.00	256.46
419.00	259.43
420.00	263.50
421.00	266.12
422.00	271.02
423.00	274.93
424.00	279.09
425.00	283.60
426.00	287.57
427.00	294.58
428.00	295.06
429.00	298.51
430.00	300.38
431.00	302.68
432.00	308.06
433.00	306.60
434.00	305.22
435.00	310.53
436.00	309.79
437.00	313.20
438.00	308.62
439.00	311.41
440.00	312.13
441.00	313.65
442.00	314.01
443.00	315.99
444.00	319.12
445.00	320.20
446.00	324.33
447.00	327.75
448.00	331.18
449.00	335.71
450.00	339.85
451.00	346.87
452.00	351.45
453.00	358.99
454.00	361.73
455.00	367.97
456.00	374.10
457.00	377.73
458.00	379.78
459.00	382.23
460.00	384.63
461.00	384.83
462.00	389.28
463.00	385.58
464.00	385.77
465.00	388.86
466.00	390.12
467.00	386.03
468.00	388.83
469.00	389.67
470.00	390.63
471.00	392.84
472.00	397.25
473.00	400.14
474.00	405.73
475.00	409.66
476.00	416.27
477.00	423.95
478.00	431.28
479.00	438.93
480.00	448.25
481.00	456.71
482.00	467.86
483.00	477.24
484.00	491.20
485.00	502.84
486.00	516.17
487.00	527.87
488.00	541.13
489.00	555.65
490.00	565.18
491.00	576.48
492.00	588.57
493.00	597.22
494.00	604.91
495.00	608.62
496.00	614.62
497.00	619.06
498.00	620.84
499.00	621.62
500.00	623.39
501.00	622.73
502.00	621.83
503.00	622.98
504.00	624.08
505.00	622.27
506.00	625.16
507.00	626.97
508.00	626.00
509.00	625.49
510.00	627.26
511.00	632.21
512.00	632.94
513.00	637.80
514.00	639.83
515.00	643.48
516.00	647.12
517.00	652.74
518.00	661.59
519.00	670.03
520.00	677.86
521.00	684.02
522.00	692.99
523.00	702.74
524.00	713.17
525.00	722.58
526.00	733.26
527.00	745.84
528.00	758.42
529.00	772.33
530.00	779.57
531.00	793.42
532.00	808.21
533.00	814.84
534.00	824.58
535.00	835.58
536.00	841.23
537.00	850.37
538.00	858.40
539.00	858.69
540.00	861.82
541.00	868.71
542.00	872.27
543.00	872.25
544.00	871.02
545.00	865.95
546.00	865.50
547.00	859.93
548.00	854.63
549.00	854.97
550.00	849.82
551.00	849.05
552.00	847.77
553.00	846.53
554.00	849.63
555.00	847.75
556.00	850.28
557.00	850.09
558.00	850.46
559.00	852.65
560.00	857.18
561.00	861.01
562.00	871.04
563.00	867.76
564.00	877.58
565.00	883.22
566.00	888.65
567.00	895.92
568.00	896.84
569.00	903.61
570.00	915.28
571.00	933.91
572.00	929.85
573.00	941.79
574.00	949.87
575.00	954.89
576.00	966.97
577.00	971.16
578.00	979.70
579.00	989.21
580.00	996.07
581.00	1001.10
582.00	1006.52
583.00	1013.30
584.00	1019.74
585.00	1013.54
586.00	1017.22
587.00	1019.76
588.00	1018.32
589.00	1019.52
590.00	1015.87
591.00	1014.99
592.00	1012.81
593.00	1011.95
594.00	1013.68
595.00	1008.31
596.00	1005.00
597.00	1000.71
598.00	998.63
599.00	1002.28
600.00	999.99
601.00	996.30
602.00	991.32
603.00	996.58
604.00	993.79
605.00	991.94
606.00	993.94
607.00	993.79
608.00	993.22
609.00	993.49
610.00	990.93
611.00	1008.79
612.00	1009.91
613.00	1008.00
614.00	1008.36
615.00	1010.26
616.00	1011.21
617.00	1012.18
618.00	1015.86
619.00	1021.31
620.00	1022.93
621.00	1028.54
622.00	1032.40
623.00	1036.90
624.00	1042.63
625.00	1046.36
626.00	1049.63
627.00	1056.57
628.00	1061.46
629.00	1069.89
630.00	1069.17
631.00	1080.20
632.00	1079.47
633.00	1074.74
634.00	1082.23
635.00	1084.56
636.00	1089.81
637.00	1083.36
638.00	1087.15
639.00	1084.62
640.00	1091.02
641.00	1083.21
642.00	1075.59
643.00	1076.43
644.00	1071.51
645.00	1067.00
646.00	1061.53
647.00	1056.90
648.00	1050.37
649.00	1044.20
650.00	1039.84
651.00	1034.45
652.00	1026.10
653.00	1020.34
654.00	1014.02
655.00	1006.51
656.00	1000.08
657.00	995.21
658.00	992.69
659.00	983.54
660.00	979.15
661.00	972.63
662.00	969.87
663.00	972.97
664.00	966.55
665.00	954.31
666.00	953.80
667.00	949.59
668.00	946.45
669.00	938.37
670.00	941.22
671.00	937.77
672.00	932.64
673.00	931.99
674.00	928.39
675.00	923.68
676.00	929.61
677.00	923.86
678.00	926.15
679.00	921.85
680.00	918.96
681.00	921.15
682.00	922.97
683.00	916.24
684.00	924.07
685.00	923.89
686.00	915.68
687.00	917.90
688.00	920.27
689.00	921.48
690.00	923.60
691.00	924.30
692.00	921.34
693.00	924.96
694.00	927.39
695.00	929.33
696.00	930.21
697.00	934.04
698.00	932.16
699.00	932.71
700.00	928.98
701.00	931.50
702.00	931.29
703.00	929.63
704.00	926.00
705.00	931.82
706.00	921.22
707.00	919.16
708.00	919.06
709.00	919.27
710.00	913.40
711.00	909.44
712.00	907.80
713.00	896.12
714.00	891.80
715.00	887.11
716.00	878.36
717.00	870.66
718.00	863.03
719.00	855.53
720.00	845.90
721.00	834.80
722.00	823.54
723.00	817.74
724.00	810.80
725.00	814.57
726.00	793.94
727.00	783.59
728.00	783.27
729.00	778.10
730.00	772.37
731.00	766.08
732.00	763.50
733.00	759.48
734.00	750.70
735.00	749.64
736.00	740.32
737.00	735.33
738.00	737.70
739.00	726.86
740.00	726.40
741.00	720.80
742.00	710.39
743.00	709.73
744.00	703.39
745.00	702.23
746.00	690.14
747.00	689.56
748.00	683.36
749.00	678.34
750.00	672.23
751.00	672.53
752.00	664.25
753.00	667.71
754.00	661.55
755.00	658.71
756.00	652.37
757.00	651.67
758.00	650.60
759.00	652.22
760.00	642.54
761.00	643.03
762.00	639.83
763.00	634.74
764.00	626.17
765.00	624.70
766.00	623.98
767.00	622.54
768.00	616.46
769.00	616.81
770.00	612.16
771.00	611.05
772.00	608.86
773.00	607.23
774.00	603.86
775.00	601.40
776.00	595.01
777.00	594.67
778.00	587.96
779.00	591.39
780.00	584.23
781.00	584.75
782.00	583.39
783.00	583.04
784.00	584.42
785.00	586.17
786.00	587.12
787.00	588.42
788.00	591.33
789.00	595.88
790.00	594.09
791.00	596.52
792.00	597.22
793.00	599.72
794.00	599.60
795.00	601.78
796.00	600.27
797.00	602.32
798.00	605.17
799.00	602.78
800.00	601.24
801.00	599.17
802.00	598.62
803.00	598.62
804.00	592.11
805.00	590.10
806.00	589.50
807.00	587.54
808.00	584.91
809.00	580.74
810.00	576.78
811.00	572.96
812.00	568.54
813.00	565.94
814.00	559.71
815.00	555.57
816.00	550.03
817.00	547.74
818.00	542.22
819.00	535.91
820.00	530.41
821.00	527.26
822.00	523.86
823.00	519.16
824.00	513.01
825.00	513.06
826.00	504.66
827.00	500.09
828.00	494.85
829.00	491.96
830.00	485.00
831.00	482.01
832.00	477.53
833.00	474.33
834.00	467.78
835.00	467.80
836.00	462.36
837.00	457.29
838.00	453.09
839.00	450.76
840.00	446.62
841.00	442.52
842.00	440.17
843.00	438.38
844.00	432.76
845.00	429.48
846.00	426.84
847.00	421.36
848.00	419.42
849.00	416.11
850.00	414.96
851.00	411.53
852.00	408.57
853.00	406.14
854.00	402.14
855.00	398.41
856.00	400.18
857.00	396.37
858.00	392.65
859.00	389.32
860.00	386.63
861.00	387.18
862.00	381.69
863.00	379.34
864.00	377.96
865.00	375.10
866.00	371.84
867.00	371.70
868.00	368.82
869.00	364.68
870.00	361.57
871.00	359.81
872.00	359.54
873.00	356.49
874.00	351.56
875.00	350.77
876.00	348.31
877.00	346.83
878.00	343.03
879.00	341.02
880.00	340.52
881.00	339.32
882.00	336.97
883.00	334.73
884.00	333.97
885.00	332.65
886.00	330.22
887.00	329.21
888.00	327.60
889.00	326.64
890.00	325.94
891.00	326.38
892.00	324.89
893.00	323.14
894.00	321.44
895.00	324.39
896.00	321.90
897.00	320.74
898.00	321.48
899.00	320.53
900.00	321.27
901.00	321.80
902.00	320.82
903.00	323.94
904.00	320.81
905.00	320.41
906.00	323.60
907.00	321.24
908.00	320.77
909.00	319.61
910.00	319.89
911.00	318.90
912.00	319.55
913.00	318.42
914.00	317.28
915.00	316.66
916.00	316.27
917.00	315.13
918.00	312.50
919.00	312.73
920.00	310.04
921.00	309.99
922.00	306.39
923.00	305.82
924.00	303.06
925.00	301.70
926.00	299.39
927.00	297.25
928.00	293.60
929.00	291.93
930.00	290.16
931.00	287.27
932.00	284.20
933.00	282.43
934.00	279.35
935.00	275.35
936.00	271.74
937.00	268.19
938.00	264.10
939.00	259.10
940.00	253.67
941.00	249.84
942.00	247.86
943.00	244.07
944.00	241.41
945.00	243.79
946.00	239.54
947.00	239.51
948.00	238.89
949.00	239.81
950.00	240.00
951.00	240.02
952.00	239.63
953.00	240.54
954.00	239.37
955.00	241.60
956.00	240.38
957.00	240.75
958.00	241.00
959.00	240.82
960.00	240.34
961.00	239.64
962.00	239.96
963.00	239.77
964.00	239.47
965.00	238.44
966.00	237.95
967.00	238.67
968.00	237.85
969.00	236.84
970.00	236.46
971.00	236.53
972.00	235.56
973.00	236.87
974.00	235.48
975.00	234.16
976.00	234.50
977.00	232.25
978.00	232.36
979.00	232.01
980.00	230.86
981.00	229.94
982.00	230.09
983.00	231.54
984.00	228.95
985.00	229.47
986.00	227.89
987.00	227.59
988.00	227.99
989.00	226.49
990.00	225.55
991.00	225.98
992.00	225.10
993.00	225.09
994.00	224.63
995.00	223.80
996.00	224.03
997.00	223.48
998.00	222.64
999.00	223.00
1000.00	221.92
>>>>>End Processed Spectral Data<<<<<
