SpectraSuite Data File
++++++++++++++++++++++++++++++++++++
Date: Fri Jan 27 16:21:41 CST 2012
User: Helimak
Dark Spectrum Present: No
Reference Spectrum Present: No
Number of Sampled Component Spectra: 1
Spectrometers: USB2G37154
Integration Time (usec): 150000 (USB2G37154)
Spectra Averaged: 200 (USB2G37154)
Boxcar Smoothing: 0 (USB2G37154)
Correct for Electrical Dark: No (USB2G37154)
Strobe/Lamp Enabled: No (USB2G37154)
Correct for Detector Non-linearity: No (USB2G37154)
Correct for Stray Light: No (USB2G37154)
Number of Pixels in Processed Spectrum: 651
>>>>>Begin Processed Spectral Data<<<<<
350.00	213.87
351.00	214.62
352.00	214.30
353.00	214.23
354.00	214.99
355.00	215.53
356.00	215.42
357.00	214.67
358.00	216.22
359.00	214.80
360.00	215.51
361.00	215.08
362.00	217.29
363.00	215.20
364.00	216.93
365.00	215.74
366.00	215.73
367.00	215.43
368.00	215.65
369.00	216.17
370.00	216.21
371.00	215.72
372.00	216.63
373.00	217.24
374.00	217.67
375.00	218.90
376.00	216.22
377.00	216.88
378.00	219.27
379.00	217.11
380.00	217.01
381.00	217.19
382.00	217.45
383.00	218.68
384.00	217.51
385.00	217.75
386.00	217.80
387.00	218.47
388.00	217.42
389.00	217.81
390.00	217.92
391.00	218.66
392.00	218.56
393.00	218.64
394.00	219.75
395.00	218.90
396.00	219.24
397.00	219.48
398.00	219.73
399.00	220.56
400.00	220.59
401.00	220.64
402.00	222.08
403.00	223.28
404.00	224.34
405.00	225.44
406.00	226.39
407.00	227.83
408.00	229.38
409.00	231.19
410.00	233.01
411.00	235.25
412.00	238.16
413.00	241.06
414.00	243.13
415.00	246.59
416.00	249.08
417.00	253.28
418.00	255.92
419.00	258.89
420.00	262.70
421.00	265.57
422.00	270.58
423.00	274.58
424.00	278.95
425.00	283.24
426.00	286.99
427.00	294.39
428.00	294.30
429.00	297.46
430.00	300.00
431.00	301.78
432.00	307.19
433.00	305.91
434.00	304.74
435.00	310.28
436.00	308.77
437.00	312.48
438.00	307.65
439.00	311.04
440.00	311.75
441.00	313.19
442.00	312.90
443.00	315.23
444.00	318.38
445.00	320.00
446.00	323.72
447.00	326.70
448.00	330.36
449.00	335.12
450.00	338.92
451.00	345.67
452.00	350.90
453.00	358.36
454.00	360.68
455.00	366.80
456.00	373.21
457.00	376.92
458.00	379.65
459.00	381.63
460.00	384.10
461.00	383.79
462.00	387.65
463.00	385.19
464.00	384.38
465.00	387.44
466.00	389.32
467.00	385.56
468.00	387.20
469.00	388.71
470.00	389.62
471.00	391.25
472.00	396.14
473.00	398.91
474.00	404.47
475.00	408.21
476.00	415.21
477.00	423.02
478.00	429.95
479.00	437.89
480.00	446.73
481.00	454.76
482.00	465.83
483.00	475.22
484.00	489.25
485.00	502.17
486.00	514.70
487.00	526.09
488.00	538.02
489.00	554.00
490.00	563.00
491.00	573.97
492.00	586.08
493.00	595.26
494.00	602.55
495.00	605.63
496.00	611.39
497.00	615.32
498.00	617.49
499.00	619.56
500.00	620.47
501.00	619.29
502.00	618.77
503.00	621.08
504.00	621.04
505.00	619.12
506.00	622.24
507.00	623.53
508.00	623.20
509.00	623.08
510.00	624.76
511.00	630.18
512.00	631.08
513.00	634.93
514.00	636.47
515.00	643.06
516.00	646.01
517.00	650.59
518.00	659.42
519.00	667.40
520.00	676.09
521.00	680.58
522.00	690.95
523.00	700.37
524.00	710.68
525.00	719.52
526.00	730.07
527.00	742.43
528.00	754.95
529.00	769.17
530.00	777.02
531.00	790.30
532.00	804.00
533.00	811.97
534.00	822.39
535.00	832.11
536.00	837.72
537.00	847.01
538.00	854.83
539.00	854.34
540.00	858.46
541.00	864.67
542.00	868.13
543.00	867.34
544.00	867.03
545.00	861.67
546.00	862.04
547.00	856.22
548.00	851.39
549.00	851.77
550.00	847.58
551.00	844.39
552.00	843.96
553.00	842.89
554.00	847.32
555.00	845.58
556.00	846.88
557.00	848.02
558.00	845.59
559.00	849.44
560.00	853.53
561.00	857.13
562.00	866.05
563.00	864.78
564.00	873.93
565.00	880.39
566.00	886.15
567.00	891.55
568.00	893.99
569.00	900.16
570.00	911.27
571.00	930.37
572.00	927.21
573.00	939.14
574.00	946.27
575.00	951.09
576.00	961.67
577.00	966.03
578.00	976.18
579.00	985.73
580.00	992.25
581.00	997.75
582.00	1001.95
583.00	1009.10
584.00	1014.80
585.00	1009.50
586.00	1012.28
587.00	1015.17
588.00	1012.88
589.00	1015.97
590.00	1012.57
591.00	1011.20
592.00	1008.33
593.00	1007.51
594.00	1008.65
595.00	1004.85
596.00	1002.19
597.00	997.55
598.00	996.41
599.00	997.30
600.00	996.65
601.00	993.02
602.00	987.05
603.00	991.16
604.00	990.64
605.00	988.06
606.00	989.92
607.00	989.73
608.00	990.71
609.00	990.25
610.00	988.36
611.00	1004.37
612.00	1004.46
613.00	1003.33
614.00	1003.68
615.00	1007.52
616.00	1007.34
617.00	1009.15
618.00	1011.55
619.00	1026.98
620.00	1019.65
621.00	1025.96
622.00	1029.06
623.00	1033.05
624.00	1037.99
625.00	1043.02
626.00	1046.30
627.00	1052.44
628.00	1059.19
629.00	1066.60
630.00	1065.25
631.00	1076.79
632.00	1075.29
633.00	1071.59
634.00	1079.63
635.00	1081.02
636.00	1084.50
637.00	1079.10
638.00	1084.56
639.00	1079.90
640.00	1087.27
641.00	1079.79
642.00	1072.72
643.00	1074.22
644.00	1067.72
645.00	1063.63
646.00	1057.01
647.00	1052.53
648.00	1046.05
649.00	1041.03
650.00	1036.21
651.00	1031.97
652.00	1023.00
653.00	1017.34
654.00	1011.33
655.00	1004.28
656.00	997.64
657.00	992.01
658.00	990.04
659.00	979.99
660.00	977.08
661.00	970.35
662.00	967.55
663.00	970.52
664.00	964.35
665.00	950.84
666.00	950.49
667.00	946.58
668.00	943.19
669.00	935.58
670.00	937.90
671.00	934.03
672.00	929.46
673.00	929.68
674.00	926.83
675.00	921.32
676.00	925.63
677.00	921.32
678.00	923.00
679.00	920.05
680.00	917.82
681.00	918.97
682.00	920.93
683.00	914.48
684.00	922.67
685.00	921.02
686.00	913.39
687.00	915.26
688.00	917.82
689.00	920.42
690.00	920.82
691.00	920.99
692.00	920.84
693.00	920.08
694.00	925.76
695.00	928.25
696.00	926.92
697.00	932.58
698.00	927.85
699.00	929.57
700.00	926.23
701.00	929.01
702.00	929.54
703.00	928.42
704.00	923.83
705.00	929.68
706.00	918.46
707.00	916.35
708.00	917.36
709.00	917.80
710.00	912.23
711.00	906.69
712.00	903.92
713.00	893.97
714.00	889.48
715.00	886.37
716.00	875.94
717.00	869.76
718.00	860.33
719.00	852.91
720.00	843.61
721.00	834.23
722.00	822.83
723.00	815.57
724.00	808.28
725.00	811.61
726.00	791.59
727.00	782.22
728.00	782.00
729.00	775.90
730.00	771.35
731.00	765.34
732.00	761.87
733.00	756.97
734.00	748.53
735.00	749.11
736.00	739.31
737.00	732.21
738.00	736.82
739.00	724.62
740.00	725.68
741.00	720.78
742.00	709.46
743.00	706.84
744.00	701.19
745.00	701.44
746.00	687.92
747.00	687.65
748.00	681.76
749.00	677.14
750.00	671.07
751.00	671.31
752.00	663.50
753.00	667.36
754.00	660.93
755.00	657.45
756.00	650.35
757.00	650.56
758.00	649.92
759.00	650.35
760.00	641.13
761.00	641.57
762.00	639.14
763.00	633.17
764.00	625.53
765.00	623.58
766.00	622.82
767.00	620.45
768.00	615.51
769.00	616.21
770.00	611.37
771.00	610.24
772.00	609.02
773.00	605.73
774.00	601.94
775.00	600.04
776.00	593.69
777.00	593.59
778.00	587.08
779.00	589.94
780.00	583.56
781.00	582.93
782.00	582.03
783.00	582.21
784.00	582.37
785.00	584.00
786.00	587.25
787.00	587.60
788.00	590.93
789.00	595.51
790.00	593.42
791.00	595.63
792.00	596.43
793.00	598.97
794.00	598.55
795.00	600.49
796.00	599.54
797.00	601.63
798.00	603.54
799.00	601.20
800.00	599.79
801.00	598.56
802.00	597.70
803.00	597.27
804.00	591.19
805.00	589.60
806.00	589.82
807.00	586.11
808.00	583.74
809.00	580.62
810.00	575.54
811.00	571.22
812.00	567.99
813.00	564.34
814.00	559.01
815.00	555.02
816.00	550.98
817.00	547.36
818.00	541.97
819.00	536.47
820.00	530.45
821.00	526.47
822.00	522.83
823.00	518.79
824.00	512.27
825.00	511.54
826.00	504.51
827.00	499.09
828.00	494.28
829.00	491.97
830.00	484.68
831.00	480.71
832.00	477.05
833.00	473.46
834.00	468.42
835.00	467.63
836.00	462.07
837.00	456.28
838.00	453.32
839.00	450.23
840.00	445.84
841.00	441.89
842.00	440.38
843.00	436.86
844.00	433.16
845.00	429.91
846.00	425.89
847.00	420.65
848.00	418.69
849.00	415.72
850.00	414.32
851.00	410.76
852.00	407.91
853.00	405.71
854.00	401.33
855.00	398.49
856.00	399.75
857.00	395.31
858.00	392.40
859.00	388.93
860.00	386.18
861.00	387.68
862.00	381.84
863.00	379.18
864.00	378.02
865.00	374.80
866.00	370.76
867.00	371.24
868.00	367.96
869.00	364.62
870.00	361.68
871.00	359.97
872.00	358.36
873.00	356.46
874.00	350.91
875.00	350.11
876.00	348.42
877.00	346.32
878.00	342.70
879.00	341.32
880.00	339.35
881.00	338.95
882.00	337.11
883.00	334.70
884.00	333.90
885.00	332.09
886.00	329.91
887.00	329.08
888.00	327.02
889.00	326.34
890.00	325.82
891.00	326.15
892.00	324.37
893.00	322.73
894.00	321.81
895.00	325.14
896.00	321.00
897.00	319.92
898.00	321.27
899.00	320.04
900.00	320.95
901.00	321.43
902.00	320.34
903.00	324.10
904.00	320.28
905.00	320.65
906.00	322.69
907.00	321.32
908.00	320.47
909.00	319.41
910.00	319.05
911.00	318.42
912.00	319.29
913.00	317.95
914.00	318.08
915.00	316.19
916.00	316.63
917.00	315.56
918.00	312.86
919.00	312.23
920.00	309.73
921.00	310.11
922.00	306.12
923.00	304.97
924.00	302.92
925.00	301.69
926.00	299.04
927.00	297.36
928.00	293.50
929.00	292.11
930.00	290.30
931.00	287.50
932.00	284.56
933.00	282.84
934.00	278.92
935.00	276.02
936.00	271.94
937.00	268.53
938.00	263.90
939.00	258.72
940.00	253.17
941.00	250.01
942.00	248.03
943.00	244.10
944.00	241.53
945.00	243.64
946.00	239.70
947.00	239.85
948.00	238.82
949.00	239.22
950.00	239.93
951.00	240.28
952.00	239.99
953.00	240.67
954.00	239.72
955.00	241.33
956.00	240.56
957.00	241.08
958.00	241.05
959.00	240.99
960.00	240.49
961.00	240.12
962.00	240.32
963.00	239.67
964.00	239.20
965.00	238.53
966.00	238.20
967.00	238.60
968.00	237.76
969.00	237.16
970.00	235.90
971.00	236.27
972.00	235.83
973.00	237.13
974.00	234.82
975.00	233.64
976.00	234.77
977.00	232.10
978.00	232.40
979.00	232.28
980.00	231.12
981.00	230.19
982.00	230.32
983.00	231.32
984.00	229.01
985.00	229.42
986.00	228.28
987.00	227.53
988.00	228.08
989.00	226.90
990.00	225.47
991.00	226.10
992.00	225.18
993.00	225.34
994.00	224.77
995.00	224.10
996.00	223.71
997.00	223.90
998.00	222.79
999.00	222.99
1000.00	221.90
>>>>>End Processed Spectral Data<<<<<
