SpectraSuite Data File
++++++++++++++++++++++++++++++++++++
Date: Fri Jan 27 16:24:46 CST 2012
User: Helimak
Dark Spectrum Present: No
Reference Spectrum Present: No
Number of Sampled Component Spectra: 1
Spectrometers: USB2G37154
Integration Time (usec): 150000 (USB2G37154)
Spectra Averaged: 200 (USB2G37154)
Boxcar Smoothing: 0 (USB2G37154)
Correct for Electrical Dark: No (USB2G37154)
Strobe/Lamp Enabled: No (USB2G37154)
Correct for Detector Non-linearity: No (USB2G37154)
Correct for Stray Light: No (USB2G37154)
Number of Pixels in Processed Spectrum: 651
>>>>>Begin Processed Spectral Data<<<<<
350.00	213.92
351.00	215.11
352.00	213.94
353.00	214.13
354.00	214.77
355.00	215.76
356.00	215.46
357.00	214.51
358.00	216.41
359.00	214.95
360.00	215.39
361.00	215.06
362.00	217.42
363.00	214.97
364.00	217.02
365.00	215.93
366.00	215.86
367.00	215.48
368.00	215.66
369.00	216.20
370.00	216.50
371.00	215.84
372.00	216.75
373.00	216.86
374.00	217.25
375.00	218.76
376.00	216.50
377.00	217.02
378.00	218.66
379.00	216.97
380.00	217.06
381.00	217.27
382.00	217.82
383.00	218.74
384.00	217.45
385.00	217.75
386.00	217.75
387.00	218.16
388.00	217.25
389.00	217.73
390.00	218.42
391.00	218.75
392.00	218.38
393.00	218.85
394.00	219.55
395.00	219.17
396.00	219.30
397.00	219.54
398.00	219.76
399.00	220.70
400.00	220.67
401.00	220.80
402.00	221.89
403.00	223.16
404.00	223.97
405.00	225.42
406.00	226.28
407.00	227.79
408.00	229.25
409.00	231.45
410.00	233.12
411.00	234.92
412.00	238.05
413.00	241.13
414.00	243.27
415.00	246.69
416.00	249.17
417.00	252.62
418.00	255.67
419.00	259.05
420.00	262.80
421.00	265.56
422.00	270.32
423.00	274.41
424.00	278.35
425.00	282.98
426.00	286.89
427.00	293.69
428.00	294.44
429.00	297.36
430.00	300.03
431.00	301.41
432.00	307.15
433.00	305.31
434.00	304.79
435.00	308.99
436.00	308.74
437.00	312.31
438.00	307.20
439.00	310.31
440.00	310.98
441.00	312.73
442.00	312.96
443.00	314.98
444.00	317.50
445.00	319.90
446.00	323.34
447.00	326.55
448.00	330.13
449.00	334.28
450.00	338.64
451.00	345.28
452.00	349.82
453.00	357.35
454.00	359.95
455.00	366.42
456.00	373.06
457.00	376.14
458.00	378.19
459.00	380.13
460.00	382.67
461.00	383.00
462.00	386.67
463.00	384.35
464.00	383.75
465.00	386.75
466.00	388.31
467.00	384.77
468.00	386.67
469.00	387.53
470.00	388.87
471.00	390.96
472.00	395.44
473.00	398.64
474.00	403.85
475.00	407.61
476.00	414.53
477.00	421.96
478.00	428.90
479.00	436.14
480.00	445.71
481.00	454.18
482.00	464.74
483.00	473.57
484.00	488.66
485.00	500.04
486.00	513.03
487.00	524.52
488.00	536.65
489.00	552.78
490.00	561.90
491.00	572.49
492.00	583.98
493.00	593.47
494.00	600.48
495.00	604.85
496.00	609.26
497.00	614.38
498.00	615.65
499.00	618.34
500.00	618.14
501.00	618.35
502.00	617.01
503.00	619.06
504.00	619.72
505.00	617.19
506.00	620.99
507.00	622.59
508.00	621.96
509.00	620.94
510.00	623.31
511.00	628.61
512.00	627.72
513.00	632.97
514.00	635.10
515.00	640.39
516.00	643.64
517.00	648.39
518.00	657.78
519.00	665.46
520.00	672.98
521.00	679.39
522.00	688.25
523.00	696.96
524.00	707.48
525.00	716.62
526.00	727.65
527.00	740.60
528.00	752.23
529.00	766.37
530.00	773.85
531.00	788.04
532.00	801.48
533.00	808.37
534.00	818.39
535.00	828.86
536.00	835.09
537.00	843.38
538.00	851.09
539.00	851.28
540.00	854.58
541.00	861.22
542.00	865.86
543.00	864.26
544.00	863.59
545.00	857.55
546.00	859.48
547.00	853.71
548.00	848.34
549.00	848.63
550.00	844.49
551.00	842.51
552.00	839.96
553.00	838.67
554.00	842.21
555.00	841.93
556.00	844.26
557.00	844.05
558.00	843.51
559.00	847.95
560.00	850.23
561.00	853.74
562.00	863.75
563.00	862.13
564.00	869.87
565.00	878.70
566.00	883.82
567.00	887.82
568.00	890.33
569.00	896.15
570.00	907.38
571.00	925.85
572.00	923.40
573.00	935.43
574.00	942.97
575.00	946.70
576.00	959.61
577.00	963.61
578.00	972.08
579.00	980.56
580.00	987.79
581.00	991.88
582.00	997.59
583.00	1005.56
584.00	1011.76
585.00	1005.69
586.00	1009.68
587.00	1011.24
588.00	1009.15
589.00	1011.47
590.00	1006.76
591.00	1007.45
592.00	1004.63
593.00	1003.66
594.00	1004.96
595.00	1000.50
596.00	998.73
597.00	993.63
598.00	992.68
599.00	993.83
600.00	991.62
601.00	988.25
602.00	983.50
603.00	988.27
604.00	986.87
605.00	983.36
606.00	986.94
607.00	987.93
608.00	987.78
609.00	987.05
610.00	985.63
611.00	999.65
612.00	999.85
613.00	1000.05
614.00	1000.00
615.00	1002.87
616.00	1004.95
617.00	1006.19
618.00	1009.53
619.00	1024.93
620.00	1017.55
621.00	1023.02
622.00	1026.08
623.00	1029.71
624.00	1035.29
625.00	1039.08
626.00	1042.97
627.00	1050.24
628.00	1054.40
629.00	1063.61
630.00	1062.18
631.00	1074.04
632.00	1071.44
633.00	1067.72
634.00	1075.18
635.00	1077.85
636.00	1081.62
637.00	1077.07
638.00	1081.48
639.00	1076.56
640.00	1083.69
641.00	1076.93
642.00	1070.16
643.00	1069.44
644.00	1066.19
645.00	1059.54
646.00	1055.49
647.00	1049.70
648.00	1043.24
649.00	1036.83
650.00	1032.62
651.00	1028.84
652.00	1020.24
653.00	1015.09
654.00	1007.96
655.00	1000.38
656.00	995.32
657.00	988.61
658.00	987.25
659.00	979.01
660.00	973.55
661.00	967.52
662.00	965.07
663.00	966.67
664.00	959.24
665.00	947.17
666.00	947.76
667.00	943.81
668.00	940.81
669.00	932.19
670.00	933.69
671.00	931.01
672.00	925.93
673.00	924.92
674.00	922.36
675.00	917.24
676.00	922.59
677.00	917.40
678.00	920.18
679.00	916.87
680.00	914.06
681.00	914.90
682.00	917.21
683.00	911.78
684.00	919.82
685.00	915.56
686.00	907.98
687.00	911.24
688.00	913.43
689.00	917.08
690.00	917.61
691.00	917.61
692.00	916.42
693.00	917.92
694.00	922.52
695.00	923.51
696.00	924.17
697.00	928.43
698.00	924.26
699.00	926.03
700.00	921.89
701.00	924.79
702.00	925.30
703.00	923.76
704.00	921.10
705.00	924.93
706.00	915.15
707.00	913.11
708.00	913.19
709.00	913.00
710.00	908.24
711.00	903.49
712.00	902.17
713.00	889.95
714.00	884.83
715.00	882.81
716.00	874.44
717.00	867.45
718.00	858.30
719.00	851.59
720.00	840.65
721.00	830.69
722.00	819.04
723.00	811.73
724.00	805.31
725.00	809.63
726.00	789.35
727.00	778.84
728.00	779.14
729.00	772.50
730.00	766.59
731.00	761.50
732.00	758.74
733.00	754.67
734.00	746.70
735.00	746.03
736.00	736.72
737.00	730.12
738.00	732.09
739.00	721.13
740.00	723.78
741.00	717.27
742.00	706.48
743.00	706.21
744.00	699.45
745.00	699.32
746.00	685.14
747.00	686.29
748.00	679.59
749.00	674.89
750.00	667.82
751.00	668.64
752.00	661.65
753.00	663.52
754.00	657.37
755.00	654.90
756.00	647.90
757.00	648.42
758.00	647.11
759.00	648.72
760.00	639.40
761.00	639.60
762.00	637.03
763.00	631.27
764.00	622.78
765.00	621.78
766.00	620.94
767.00	619.57
768.00	613.53
769.00	614.01
770.00	608.38
771.00	608.28
772.00	605.64
773.00	604.20
774.00	600.37
775.00	598.41
776.00	591.34
777.00	591.49
778.00	585.08
779.00	588.50
780.00	581.77
781.00	581.16
782.00	580.37
783.00	580.26
784.00	579.98
785.00	582.43
786.00	584.22
787.00	585.27
788.00	588.87
789.00	592.64
790.00	590.86
791.00	593.28
792.00	593.93
793.00	596.15
794.00	595.74
795.00	598.31
796.00	598.31
797.00	599.14
798.00	600.78
799.00	598.84
800.00	598.32
801.00	596.24
802.00	595.64
803.00	595.01
804.00	588.92
805.00	587.80
806.00	587.73
807.00	583.88
808.00	582.52
809.00	577.51
810.00	573.92
811.00	569.74
812.00	566.49
813.00	562.90
814.00	556.78
815.00	553.17
816.00	548.04
817.00	545.18
818.00	539.83
819.00	534.84
820.00	528.80
821.00	524.70
822.00	521.96
823.00	517.56
824.00	510.96
825.00	510.91
826.00	502.96
827.00	497.98
828.00	492.54
829.00	489.79
830.00	483.17
831.00	479.39
832.00	476.30
833.00	472.22
834.00	466.44
835.00	466.30
836.00	459.86
837.00	455.60
838.00	451.91
839.00	449.15
840.00	444.76
841.00	439.89
842.00	438.98
843.00	436.05
844.00	431.08
845.00	427.46
846.00	424.75
847.00	419.56
848.00	417.55
849.00	414.72
850.00	412.89
851.00	409.76
852.00	406.41
853.00	404.37
854.00	400.70
855.00	397.22
856.00	398.56
857.00	393.38
858.00	391.02
859.00	388.18
860.00	385.02
861.00	386.49
862.00	380.31
863.00	377.53
864.00	377.21
865.00	373.39
866.00	369.90
867.00	370.16
868.00	367.30
869.00	362.99
870.00	360.68
871.00	359.37
872.00	358.04
873.00	355.18
874.00	350.33
875.00	349.34
876.00	347.04
877.00	344.97
878.00	342.04
879.00	340.27
880.00	338.90
881.00	337.89
882.00	336.38
883.00	333.73
884.00	332.64
885.00	331.85
886.00	329.39
887.00	328.12
888.00	326.69
889.00	325.42
890.00	325.23
891.00	325.00
892.00	323.60
893.00	322.69
894.00	320.96
895.00	323.58
896.00	320.28
897.00	319.76
898.00	320.94
899.00	319.44
900.00	320.42
901.00	320.48
902.00	319.68
903.00	323.72
904.00	320.52
905.00	320.03
906.00	322.23
907.00	320.56
908.00	319.94
909.00	319.05
910.00	318.79
911.00	318.76
912.00	318.58
913.00	317.52
914.00	316.95
915.00	315.90
916.00	315.65
917.00	314.93
918.00	311.87
919.00	312.36
920.00	308.71
921.00	308.82
922.00	305.34
923.00	305.00
924.00	302.55
925.00	301.56
926.00	298.22
927.00	296.50
928.00	292.88
929.00	291.41
930.00	289.56
931.00	286.76
932.00	284.25
933.00	282.16
934.00	279.00
935.00	275.59
936.00	271.46
937.00	267.87
938.00	263.76
939.00	258.30
940.00	253.12
941.00	249.77
942.00	247.63
943.00	244.16
944.00	241.55
945.00	243.78
946.00	239.58
947.00	239.67
948.00	239.15
949.00	239.36
950.00	239.96
951.00	240.00
952.00	239.79
953.00	240.24
954.00	239.30
955.00	241.55
956.00	240.86
957.00	240.77
958.00	240.78
959.00	240.73
960.00	240.30
961.00	239.77
962.00	240.15
963.00	239.49
964.00	239.47
965.00	238.31
966.00	238.23
967.00	238.37
968.00	237.70
969.00	236.74
970.00	236.01
971.00	236.38
972.00	235.60
973.00	236.68
974.00	235.01
975.00	233.71
976.00	234.52
977.00	232.24
978.00	232.27
979.00	231.59
980.00	230.24
981.00	230.27
982.00	230.52
983.00	230.90
984.00	229.04
985.00	229.78
986.00	227.81
987.00	227.70
988.00	227.93
989.00	226.83
990.00	225.46
991.00	226.14
992.00	225.23
993.00	225.34
994.00	224.44
995.00	223.91
996.00	223.89
997.00	223.84
998.00	222.77
999.00	223.22
1000.00	221.72
>>>>>End Processed Spectral Data<<<<<
