SpectraSuite Data File
++++++++++++++++++++++++++++++++++++
Date: Fri Jan 27 16:29:53 CST 2012
User: Helimak
Dark Spectrum Present: No
Reference Spectrum Present: No
Number of Sampled Component Spectra: 1
Spectrometers: USB2G37154
Integration Time (usec): 150000 (USB2G37154)
Spectra Averaged: 200 (USB2G37154)
Boxcar Smoothing: 0 (USB2G37154)
Correct for Electrical Dark: No (USB2G37154)
Strobe/Lamp Enabled: No (USB2G37154)
Correct for Detector Non-linearity: No (USB2G37154)
Correct for Stray Light: No (USB2G37154)
Number of Pixels in Processed Spectrum: 651
>>>>>Begin Processed Spectral Data<<<<<
350.00	213.84
351.00	214.78
352.00	214.23
353.00	214.28
354.00	215.17
355.00	215.43
356.00	215.19
357.00	214.26
358.00	216.13
359.00	215.04
360.00	215.48
361.00	214.70
362.00	217.15
363.00	215.16
364.00	217.14
365.00	215.84
366.00	215.67
367.00	215.75
368.00	215.67
369.00	215.98
370.00	216.31
371.00	215.89
372.00	216.84
373.00	216.74
374.00	217.40
375.00	218.88
376.00	216.61
377.00	217.03
378.00	219.25
379.00	217.13
380.00	216.80
381.00	217.28
382.00	217.70
383.00	218.70
384.00	217.44
385.00	218.00
386.00	217.83
387.00	218.43
388.00	217.39
389.00	217.88
390.00	218.03
391.00	218.83
392.00	218.58
393.00	218.70
394.00	219.62
395.00	218.88
396.00	219.22
397.00	219.45
398.00	219.56
399.00	220.83
400.00	220.57
401.00	220.81
402.00	221.87
403.00	223.08
404.00	223.82
405.00	225.51
406.00	226.10
407.00	227.53
408.00	229.01
409.00	231.27
410.00	233.03
411.00	235.05
412.00	237.90
413.00	241.01
414.00	242.84
415.00	246.41
416.00	249.09
417.00	252.82
418.00	255.46
419.00	258.16
420.00	262.39
421.00	264.94
422.00	269.84
423.00	273.85
424.00	277.46
425.00	282.26
426.00	286.06
427.00	292.65
428.00	293.47
429.00	296.35
430.00	298.78
431.00	300.72
432.00	305.92
433.00	304.35
434.00	303.64
435.00	308.40
436.00	307.83
437.00	311.30
438.00	306.42
439.00	309.32
440.00	309.93
441.00	311.68
442.00	311.67
443.00	313.77
444.00	316.72
445.00	318.08
446.00	321.97
447.00	325.16
448.00	328.53
449.00	333.09
450.00	336.95
451.00	343.40
452.00	349.05
453.00	356.25
454.00	358.38
455.00	364.32
456.00	371.09
457.00	374.19
458.00	376.36
459.00	379.09
460.00	380.90
461.00	381.48
462.00	385.40
463.00	382.76
464.00	382.27
465.00	385.35
466.00	386.09
467.00	382.34
468.00	383.48
469.00	386.52
470.00	386.73
471.00	389.23
472.00	393.14
473.00	396.65
474.00	401.97
475.00	405.26
476.00	412.34
477.00	420.12
478.00	427.22
479.00	434.36
480.00	443.21
481.00	451.50
482.00	462.00
483.00	471.68
484.00	486.06
485.00	497.35
486.00	509.90
487.00	521.37
488.00	533.36
489.00	548.93
490.00	558.29
491.00	568.83
492.00	580.28
493.00	589.06
494.00	596.11
495.00	600.09
496.00	605.01
497.00	610.08
498.00	612.83
499.00	612.98
500.00	614.50
501.00	613.57
502.00	612.50
503.00	614.70
504.00	615.77
505.00	613.72
506.00	616.11
507.00	619.37
508.00	617.50
509.00	617.34
510.00	618.72
511.00	624.34
512.00	624.15
513.00	629.17
514.00	629.93
515.00	635.19
516.00	639.07
517.00	643.78
518.00	653.07
519.00	662.03
520.00	668.74
521.00	676.05
522.00	683.47
523.00	693.25
524.00	701.89
525.00	711.81
526.00	722.47
527.00	734.30
528.00	747.04
529.00	761.75
530.00	768.72
531.00	782.38
532.00	795.80
533.00	803.22
534.00	813.31
535.00	823.05
536.00	830.27
537.00	838.46
538.00	845.68
539.00	845.72
540.00	848.35
541.00	856.21
542.00	858.65
543.00	858.84
544.00	857.79
545.00	852.01
546.00	853.86
547.00	846.78
548.00	841.99
549.00	842.19
550.00	837.83
551.00	835.69
552.00	835.22
553.00	834.09
554.00	837.23
555.00	835.89
556.00	837.47
557.00	839.24
558.00	837.96
559.00	840.64
560.00	844.37
561.00	847.12
562.00	858.39
563.00	856.04
564.00	863.66
565.00	872.37
566.00	877.18
567.00	881.28
568.00	884.95
569.00	890.14
570.00	901.50
571.00	920.32
572.00	917.85
573.00	928.56
574.00	936.52
575.00	941.02
576.00	952.67
577.00	956.10
578.00	965.34
579.00	975.36
580.00	980.62
581.00	985.92
582.00	991.56
583.00	997.48
584.00	1005.48
585.00	999.11
586.00	1001.34
587.00	1004.49
588.00	1001.47
589.00	1003.82
590.00	1000.30
591.00	1000.76
592.00	998.52
593.00	996.40
594.00	997.23
595.00	993.43
596.00	990.65
597.00	987.88
598.00	986.09
599.00	987.63
600.00	985.34
601.00	981.26
602.00	976.34
603.00	981.45
604.00	980.85
605.00	977.30
606.00	980.39
607.00	980.37
608.00	979.42
609.00	979.11
610.00	978.41
611.00	992.45
612.00	993.31
613.00	992.92
614.00	994.22
615.00	995.84
616.00	997.53
617.00	998.51
618.00	1003.90
619.00	1017.36
620.00	1010.37
621.00	1014.70
622.00	1019.16
623.00	1022.03
624.00	1027.45
625.00	1031.79
626.00	1034.91
627.00	1041.59
628.00	1045.71
629.00	1054.41
630.00	1055.38
631.00	1065.79
632.00	1061.35
633.00	1059.47
634.00	1067.01
635.00	1070.43
636.00	1072.96
637.00	1067.39
638.00	1072.75
639.00	1067.75
640.00	1075.90
641.00	1069.01
642.00	1061.41
643.00	1062.62
644.00	1056.87
645.00	1052.86
646.00	1048.02
647.00	1043.08
648.00	1036.23
649.00	1030.86
650.00	1025.59
651.00	1021.02
652.00	1012.08
653.00	1007.79
654.00	1000.04
655.00	992.29
656.00	987.79
657.00	980.93
658.00	978.49
659.00	970.28
660.00	967.43
661.00	960.88
662.00	957.11
663.00	958.89
664.00	952.11
665.00	939.69
666.00	940.11
667.00	936.73
668.00	934.10
669.00	925.21
670.00	928.13
671.00	924.12
672.00	919.93
673.00	920.33
674.00	915.76
675.00	910.57
676.00	916.18
677.00	911.74
678.00	913.06
679.00	910.65
680.00	908.41
681.00	910.50
682.00	911.77
683.00	905.62
684.00	914.25
685.00	910.70
686.00	903.33
687.00	905.86
688.00	907.73
689.00	911.87
690.00	910.96
691.00	912.02
692.00	909.85
693.00	911.90
694.00	916.60
695.00	918.11
696.00	918.86
697.00	922.51
698.00	919.09
699.00	920.18
700.00	917.64
701.00	918.53
702.00	920.17
703.00	918.97
704.00	915.72
705.00	919.62
706.00	907.80
707.00	907.83
708.00	907.38
709.00	908.84
710.00	902.51
711.00	897.27
712.00	896.89
713.00	884.15
714.00	881.14
715.00	876.39
716.00	867.62
717.00	861.15
718.00	852.16
719.00	843.94
720.00	835.68
721.00	825.31
722.00	814.25
723.00	807.26
724.00	800.32
725.00	805.13
726.00	785.17
727.00	775.05
728.00	774.01
729.00	767.44
730.00	763.13
731.00	758.19
732.00	754.25
733.00	750.78
734.00	740.95
735.00	741.42
736.00	733.15
737.00	726.77
738.00	729.50
739.00	717.39
740.00	719.80
741.00	714.23
742.00	703.56
743.00	700.57
744.00	695.22
745.00	695.95
746.00	681.72
747.00	681.97
748.00	676.19
749.00	670.62
750.00	663.98
751.00	664.64
752.00	657.10
753.00	661.00
754.00	655.00
755.00	651.11
756.00	645.14
757.00	644.47
758.00	643.82
759.00	646.26
760.00	636.58
761.00	635.82
762.00	632.44
763.00	628.04
764.00	619.78
765.00	618.20
766.00	617.87
767.00	616.20
768.00	610.58
769.00	611.77
770.00	606.39
771.00	604.69
772.00	602.65
773.00	601.82
774.00	598.84
775.00	595.41
776.00	588.90
777.00	589.19
778.00	583.26
779.00	585.34
780.00	579.24
781.00	578.84
782.00	577.63
783.00	578.49
784.00	578.30
785.00	580.40
786.00	581.75
787.00	582.29
788.00	586.29
789.00	589.39
790.00	588.13
791.00	590.06
792.00	590.69
793.00	593.01
794.00	593.29
795.00	595.27
796.00	594.81
797.00	595.44
798.00	598.07
799.00	596.26
800.00	596.30
801.00	593.91
802.00	592.29
803.00	592.07
804.00	586.82
805.00	585.07
806.00	584.00
807.00	581.54
808.00	580.80
809.00	574.21
810.00	570.79
811.00	566.93
812.00	563.99
813.00	560.93
814.00	554.36
815.00	550.43
816.00	546.39
817.00	543.64
818.00	537.48
819.00	531.94
820.00	526.46
821.00	522.79
822.00	519.08
823.00	515.23
824.00	508.29
825.00	508.07
826.00	500.63
827.00	495.52
828.00	490.43
829.00	487.90
830.00	481.29
831.00	478.13
832.00	474.05
833.00	470.40
834.00	464.85
835.00	464.29
836.00	458.93
837.00	454.14
838.00	450.25
839.00	447.28
840.00	443.06
841.00	438.62
842.00	437.72
843.00	433.17
844.00	429.80
845.00	426.62
846.00	423.04
847.00	418.24
848.00	415.97
849.00	413.51
850.00	411.52
851.00	408.25
852.00	405.58
853.00	404.00
854.00	399.47
855.00	396.68
856.00	397.40
857.00	392.24
858.00	390.00
859.00	386.67
860.00	384.24
861.00	386.02
862.00	379.63
863.00	376.85
864.00	376.09
865.00	372.65
866.00	369.59
867.00	369.37
868.00	366.32
869.00	362.26
870.00	359.64
871.00	357.51
872.00	357.28
873.00	353.98
874.00	349.77
875.00	348.74
876.00	346.15
877.00	344.63
878.00	341.40
879.00	339.33
880.00	338.79
881.00	337.33
882.00	335.59
883.00	333.50
884.00	331.91
885.00	331.00
886.00	328.67
887.00	327.79
888.00	325.62
889.00	325.29
890.00	324.23
891.00	324.46
892.00	323.20
893.00	321.15
894.00	320.47
895.00	323.01
896.00	319.81
897.00	319.24
898.00	319.63
899.00	318.81
900.00	319.58
901.00	319.83
902.00	319.71
903.00	322.79
904.00	319.44
905.00	319.12
906.00	321.74
907.00	319.70
908.00	318.82
909.00	318.16
910.00	318.62
911.00	317.69
912.00	317.62
913.00	316.93
914.00	316.31
915.00	315.24
916.00	314.71
917.00	314.18
918.00	311.40
919.00	311.37
920.00	308.42
921.00	308.66
922.00	304.98
923.00	304.08
924.00	301.97
925.00	300.64
926.00	298.24
927.00	296.01
928.00	292.35
929.00	291.15
930.00	289.50
931.00	285.72
932.00	283.88
933.00	282.02
934.00	278.39
935.00	274.68
936.00	271.35
937.00	267.69
938.00	263.69
939.00	258.09
940.00	252.86
941.00	249.66
942.00	247.90
943.00	244.27
944.00	241.46
945.00	243.53
946.00	239.58
947.00	239.14
948.00	238.97
949.00	239.18
950.00	239.29
951.00	239.82
952.00	239.02
953.00	240.27
954.00	239.30
955.00	241.34
956.00	240.37
957.00	240.81
958.00	240.63
959.00	240.28
960.00	240.44
961.00	239.89
962.00	240.13
963.00	239.13
964.00	239.46
965.00	238.36
966.00	238.19
967.00	238.60
968.00	237.84
969.00	236.80
970.00	235.67
971.00	236.47
972.00	235.40
973.00	236.84
974.00	234.83
975.00	233.46
976.00	234.41
977.00	232.17
978.00	231.92
979.00	231.76
980.00	230.51
981.00	229.80
982.00	230.34
983.00	230.92
984.00	228.75
985.00	229.54
986.00	227.66
987.00	227.34
988.00	228.20
989.00	226.89
990.00	225.75
991.00	225.78
992.00	225.09
993.00	225.21
994.00	224.75
995.00	223.86
996.00	223.69
997.00	223.66
998.00	222.86
999.00	223.07
1000.00	222.16
>>>>>End Processed Spectral Data<<<<<
