SpectraSuite Data File
++++++++++++++++++++++++++++++++++++
Date: Fri Jan 27 16:46:47 CST 2012
User: Helimak
Dark Spectrum Present: No
Reference Spectrum Present: No
Number of Sampled Component Spectra: 1
Spectrometers: USB2G37154
Integration Time (usec): 150000 (USB2G37154)
Spectra Averaged: 200 (USB2G37154)
Boxcar Smoothing: 0 (USB2G37154)
Correct for Electrical Dark: No (USB2G37154)
Strobe/Lamp Enabled: No (USB2G37154)
Correct for Detector Non-linearity: No (USB2G37154)
Correct for Stray Light: No (USB2G37154)
Number of Pixels in Processed Spectrum: 651
>>>>>Begin Processed Spectral Data<<<<<
350.00	213.88
351.00	214.69
352.00	214.08
353.00	214.14
354.00	214.74
355.00	215.45
356.00	215.67
357.00	214.15
358.00	216.39
359.00	214.95
360.00	215.25
361.00	214.85
362.00	217.16
363.00	215.20
364.00	216.85
365.00	216.00
366.00	215.69
367.00	215.58
368.00	215.76
369.00	216.21
370.00	216.30
371.00	215.68
372.00	216.93
373.00	216.65
374.00	217.44
375.00	218.97
376.00	216.53
377.00	216.96
378.00	219.04
379.00	217.07
380.00	217.09
381.00	217.22
382.00	217.68
383.00	218.38
384.00	217.39
385.00	217.78
386.00	217.71
387.00	218.27
388.00	217.71
389.00	218.12
390.00	218.21
391.00	218.86
392.00	218.33
393.00	218.45
394.00	219.51
395.00	218.76
396.00	218.90
397.00	219.64
398.00	219.40
399.00	220.56
400.00	220.62
401.00	220.56
402.00	222.00
403.00	222.97
404.00	223.80
405.00	225.46
406.00	225.83
407.00	227.92
408.00	229.20
409.00	231.70
410.00	233.02
411.00	235.38
412.00	238.27
413.00	241.13
414.00	243.15
415.00	246.72
416.00	249.33
417.00	252.72
418.00	255.86
419.00	258.79
420.00	262.65
421.00	265.63
422.00	270.31
423.00	274.30
424.00	278.29
425.00	282.55
426.00	286.49
427.00	293.59
428.00	293.74
429.00	297.59
430.00	299.52
431.00	301.13
432.00	306.48
433.00	305.01
434.00	303.83
435.00	308.81
436.00	308.38
437.00	311.81
438.00	307.21
439.00	310.07
440.00	310.42
441.00	312.30
442.00	312.31
443.00	314.26
444.00	317.38
445.00	319.39
446.00	322.70
447.00	326.03
448.00	329.65
449.00	333.42
450.00	337.20
451.00	344.94
452.00	349.52
453.00	357.18
454.00	359.82
455.00	365.82
456.00	372.47
457.00	376.21
458.00	377.59
459.00	379.34
460.00	382.21
461.00	382.34
462.00	386.90
463.00	383.99
464.00	383.38
465.00	385.71
466.00	387.58
467.00	383.92
468.00	385.73
469.00	386.63
470.00	388.07
471.00	390.20
472.00	394.89
473.00	397.81
474.00	403.56
475.00	406.87
476.00	414.37
477.00	421.28
478.00	428.02
479.00	435.78
480.00	444.96
481.00	453.26
482.00	464.05
483.00	473.41
484.00	488.66
485.00	499.26
486.00	512.48
487.00	523.40
488.00	535.69
489.00	550.80
490.00	560.76
491.00	571.30
492.00	582.57
493.00	591.89
494.00	598.78
495.00	602.53
496.00	607.86
497.00	612.97
498.00	615.32
499.00	615.94
500.00	617.43
501.00	616.65
502.00	615.28
503.00	617.41
504.00	618.67
505.00	615.83
506.00	619.31
507.00	621.28
508.00	619.75
509.00	619.12
510.00	621.07
511.00	628.23
512.00	627.67
513.00	631.88
514.00	633.38
515.00	638.07
516.00	641.79
517.00	647.31
518.00	656.04
519.00	663.35
520.00	671.82
521.00	677.39
522.00	686.52
523.00	695.66
524.00	705.96
525.00	715.59
526.00	725.56
527.00	737.68
528.00	750.46
529.00	764.62
530.00	771.09
531.00	785.20
532.00	798.77
533.00	805.41
534.00	816.99
535.00	827.19
536.00	833.24
537.00	843.10
538.00	850.18
539.00	848.52
540.00	851.16
541.00	859.68
542.00	862.42
543.00	861.85
544.00	862.15
545.00	856.79
546.00	857.98
547.00	850.51
548.00	845.31
549.00	846.71
550.00	842.08
551.00	839.71
552.00	839.45
553.00	838.77
554.00	840.57
555.00	839.74
556.00	842.08
557.00	842.01
558.00	840.49
559.00	845.32
560.00	848.12
561.00	851.76
562.00	861.59
563.00	860.64
564.00	868.64
565.00	875.71
566.00	881.38
567.00	887.66
568.00	888.56
569.00	894.26
570.00	906.29
571.00	923.38
572.00	921.56
573.00	932.91
574.00	940.32
575.00	945.35
576.00	958.14
577.00	961.23
578.00	969.94
579.00	979.28
580.00	986.05
581.00	991.45
582.00	995.30
583.00	1004.26
584.00	1009.31
585.00	1002.66
586.00	1006.58
587.00	1007.88
588.00	1005.46
589.00	1007.34
590.00	1005.27
591.00	1005.07
592.00	1002.10
593.00	1000.09
594.00	1002.58
595.00	998.46
596.00	995.75
597.00	991.68
598.00	989.48
599.00	991.04
600.00	990.95
601.00	986.66
602.00	981.25
603.00	984.89
604.00	982.41
605.00	980.43
606.00	983.54
607.00	984.07
608.00	983.89
609.00	983.77
610.00	982.09
611.00	995.32
612.00	997.00
613.00	995.78
614.00	996.89
615.00	999.79
616.00	1000.17
617.00	1001.64
618.00	1005.71
619.00	1020.93
620.00	1012.79
621.00	1019.50
622.00	1021.73
623.00	1026.62
624.00	1031.33
625.00	1036.57
626.00	1040.10
627.00	1044.68
628.00	1051.39
629.00	1058.68
630.00	1059.16
631.00	1069.83
632.00	1067.55
633.00	1063.55
634.00	1071.49
635.00	1073.69
636.00	1077.01
637.00	1071.87
638.00	1076.67
639.00	1073.05
640.00	1079.67
641.00	1073.07
642.00	1064.85
643.00	1065.66
644.00	1058.42
645.00	1054.22
646.00	1050.74
647.00	1044.76
648.00	1039.16
649.00	1032.89
650.00	1027.82
651.00	1025.90
652.00	1015.60
653.00	1010.06
654.00	1002.85
655.00	996.03
656.00	990.16
657.00	985.21
658.00	982.60
659.00	973.71
660.00	969.88
661.00	963.46
662.00	960.63
663.00	962.15
664.00	956.28
665.00	943.51
666.00	943.32
667.00	938.68
668.00	936.85
669.00	928.54
670.00	931.41
671.00	926.49
672.00	921.69
673.00	922.00
674.00	919.60
675.00	914.41
676.00	919.98
677.00	914.81
678.00	916.74
679.00	912.88
680.00	911.43
681.00	912.22
682.00	913.43
683.00	906.80
684.00	915.77
685.00	914.53
686.00	905.95
687.00	908.36
688.00	911.89
689.00	912.49
690.00	912.30
691.00	914.29
692.00	912.93
693.00	913.81
694.00	919.19
695.00	919.51
696.00	919.77
697.00	924.66
698.00	921.32
699.00	923.80
700.00	921.35
701.00	922.12
702.00	922.46
703.00	920.43
704.00	917.22
705.00	921.22
706.00	910.88
707.00	909.58
708.00	910.94
709.00	910.89
710.00	905.36
711.00	899.91
712.00	897.72
713.00	885.80
714.00	882.23
715.00	879.26
716.00	869.05
717.00	863.23
718.00	854.50
719.00	847.09
720.00	837.00
721.00	828.11
722.00	817.50
723.00	811.35
724.00	802.37
725.00	807.17
726.00	785.80
727.00	776.82
728.00	775.48
729.00	770.74
730.00	764.95
731.00	760.11
732.00	756.73
733.00	752.32
734.00	743.28
735.00	743.49
736.00	735.20
737.00	728.91
738.00	730.98
739.00	718.29
740.00	720.94
741.00	714.90
742.00	704.22
743.00	702.80
744.00	697.20
745.00	696.86
746.00	683.77
747.00	683.43
748.00	677.58
749.00	672.10
750.00	665.71
751.00	667.12
752.00	659.51
753.00	662.77
754.00	655.85
755.00	652.39
756.00	646.86
757.00	645.95
758.00	645.24
759.00	647.12
760.00	637.15
761.00	637.29
762.00	634.46
763.00	628.79
764.00	621.61
765.00	619.97
766.00	618.92
767.00	617.16
768.00	611.14
769.00	612.49
770.00	607.38
771.00	606.82
772.00	604.45
773.00	602.72
774.00	598.84
775.00	595.79
776.00	590.04
777.00	590.36
778.00	582.98
779.00	586.43
780.00	579.25
781.00	579.60
782.00	578.69
783.00	579.37
784.00	579.23
785.00	581.39
786.00	582.52
787.00	583.48
788.00	587.85
789.00	591.71
790.00	589.76
791.00	590.86
792.00	592.97
793.00	594.89
794.00	595.11
795.00	596.08
796.00	596.38
797.00	596.28
798.00	599.53
799.00	597.55
800.00	598.13
801.00	594.52
802.00	593.93
803.00	592.65
804.00	587.22
805.00	585.50
806.00	585.06
807.00	582.42
808.00	580.34
809.00	575.92
810.00	571.73
811.00	568.15
812.00	565.53
813.00	561.82
814.00	555.34
815.00	551.90
816.00	546.50
817.00	543.64
818.00	538.17
819.00	533.01
820.00	527.85
821.00	523.72
822.00	520.80
823.00	515.58
824.00	509.41
825.00	509.72
826.00	502.32
827.00	496.81
828.00	491.86
829.00	489.11
830.00	481.54
831.00	477.80
832.00	474.12
833.00	471.55
834.00	465.55
835.00	465.66
836.00	459.54
837.00	454.53
838.00	451.67
839.00	447.36
840.00	443.46
841.00	440.14
842.00	437.57
843.00	434.25
844.00	430.12
845.00	427.22
846.00	423.69
847.00	418.68
848.00	417.15
849.00	413.94
850.00	412.68
851.00	408.64
852.00	405.98
853.00	404.84
854.00	399.81
855.00	396.32
856.00	398.23
857.00	393.13
858.00	390.70
859.00	387.49
860.00	384.64
861.00	386.58
862.00	380.35
863.00	377.00
864.00	375.73
865.00	373.11
866.00	369.50
867.00	369.86
868.00	367.19
869.00	362.34
870.00	359.87
871.00	358.45
872.00	357.28
873.00	355.23
874.00	350.50
875.00	348.89
876.00	346.86
877.00	345.02
878.00	341.45
879.00	339.37
880.00	338.21
881.00	337.90
882.00	335.78
883.00	334.09
884.00	332.79
885.00	331.45
886.00	328.95
887.00	327.79
888.00	326.00
889.00	324.79
890.00	325.10
891.00	325.12
892.00	323.79
893.00	322.34
894.00	320.96
895.00	324.01
896.00	320.93
897.00	319.32
898.00	320.71
899.00	319.39
900.00	320.38
901.00	320.54
902.00	319.31
903.00	323.36
904.00	319.68
905.00	319.67
906.00	322.13
907.00	319.99
908.00	319.49
909.00	318.37
910.00	318.71
911.00	317.74
912.00	318.65
913.00	317.57
914.00	316.96
915.00	315.35
916.00	315.43
917.00	314.38
918.00	311.80
919.00	311.88
920.00	308.87
921.00	308.75
922.00	305.17
923.00	304.24
924.00	302.27
925.00	300.99
926.00	298.31
927.00	296.31
928.00	292.87
929.00	291.84
930.00	289.92
931.00	286.59
932.00	283.67
933.00	282.48
934.00	278.96
935.00	275.09
936.00	271.04
937.00	267.14
938.00	263.22
939.00	258.45
940.00	252.78
941.00	250.06
942.00	247.77
943.00	244.10
944.00	241.27
945.00	243.33
946.00	239.41
947.00	239.63
948.00	238.89
949.00	238.86
950.00	239.68
951.00	239.72
952.00	239.48
953.00	240.10
954.00	239.43
955.00	240.90
956.00	240.47
957.00	240.57
958.00	240.92
959.00	240.51
960.00	240.20
961.00	240.00
962.00	239.80
963.00	239.76
964.00	239.13
965.00	238.22
966.00	237.92
967.00	238.64
968.00	237.50
969.00	236.55
970.00	235.98
971.00	236.52
972.00	235.45
973.00	236.57
974.00	235.18
975.00	233.71
976.00	234.37
977.00	232.39
978.00	232.19
979.00	231.84
980.00	230.45
981.00	229.89
982.00	230.25
983.00	231.16
984.00	228.73
985.00	229.26
986.00	227.64
987.00	227.54
988.00	228.11
989.00	226.66
990.00	225.52
991.00	225.90
992.00	225.11
993.00	225.05
994.00	224.60
995.00	224.14
996.00	223.64
997.00	223.18
998.00	223.04
999.00	222.96
1000.00	221.65
>>>>>End Processed Spectral Data<<<<<
