SpectraSuite Data File
++++++++++++++++++++++++++++++++++++
Date: Fri Jan 27 16:54:58 CST 2012
User: Helimak
Dark Spectrum Present: No
Reference Spectrum Present: No
Number of Sampled Component Spectra: 1
Spectrometers: USB2G37154
Integration Time (usec): 150000 (USB2G37154)
Spectra Averaged: 200 (USB2G37154)
Boxcar Smoothing: 0 (USB2G37154)
Correct for Electrical Dark: No (USB2G37154)
Strobe/Lamp Enabled: No (USB2G37154)
Correct for Detector Non-linearity: No (USB2G37154)
Correct for Stray Light: No (USB2G37154)
Number of Pixels in Processed Spectrum: 651
>>>>>Begin Processed Spectral Data<<<<<
350.00	213.99
351.00	214.76
352.00	214.00
353.00	214.28
354.00	215.04
355.00	215.28
356.00	215.21
357.00	214.42
358.00	216.44
359.00	214.58
360.00	215.56
361.00	214.78
362.00	217.15
363.00	215.08
364.00	216.99
365.00	215.71
366.00	215.70
367.00	215.60
368.00	215.55
369.00	216.57
370.00	216.36
371.00	215.89
372.00	216.47
373.00	216.70
374.00	217.35
375.00	218.91
376.00	216.77
377.00	216.91
378.00	219.00
379.00	216.81
380.00	217.51
381.00	217.37
382.00	217.28
383.00	218.63
384.00	217.21
385.00	217.89
386.00	217.47
387.00	218.69
388.00	217.28
389.00	217.93
390.00	218.38
391.00	218.79
392.00	218.30
393.00	218.84
394.00	219.47
395.00	219.20
396.00	219.10
397.00	219.76
398.00	219.91
399.00	220.58
400.00	220.48
401.00	220.67
402.00	221.71
403.00	223.05
404.00	224.18
405.00	225.56
406.00	226.10
407.00	228.02
408.00	229.47
409.00	231.71
410.00	233.31
411.00	235.43
412.00	238.21
413.00	241.09
414.00	243.52
415.00	246.79
416.00	249.48
417.00	253.03
418.00	255.93
419.00	259.09
420.00	263.13
421.00	265.49
422.00	270.22
423.00	274.98
424.00	278.80
425.00	283.38
426.00	287.23
427.00	294.19
428.00	294.80
429.00	297.92
430.00	300.00
431.00	302.48
432.00	307.95
433.00	306.22
434.00	305.39
435.00	309.80
436.00	309.40
437.00	313.57
438.00	308.05
439.00	311.32
440.00	311.67
441.00	313.35
442.00	313.83
443.00	315.66
444.00	318.37
445.00	320.21
446.00	324.07
447.00	327.19
448.00	330.64
449.00	334.91
450.00	339.21
451.00	345.93
452.00	350.80
453.00	358.53
454.00	361.28
455.00	366.79
456.00	373.34
457.00	377.65
458.00	378.79
459.00	382.01
460.00	384.48
461.00	384.37
462.00	388.08
463.00	385.97
464.00	384.97
465.00	388.48
466.00	389.25
467.00	386.13
468.00	386.71
469.00	388.98
470.00	389.31
471.00	392.10
472.00	396.37
473.00	399.70
474.00	404.97
475.00	408.75
476.00	415.31
477.00	423.37
478.00	430.00
479.00	437.47
480.00	447.10
481.00	455.18
482.00	466.14
483.00	475.79
484.00	489.74
485.00	502.33
486.00	515.33
487.00	526.18
488.00	538.61
489.00	553.89
490.00	563.29
491.00	574.37
492.00	586.49
493.00	594.82
494.00	602.38
495.00	607.04
496.00	611.57
497.00	616.68
498.00	618.51
499.00	619.99
500.00	621.23
501.00	620.52
502.00	619.18
503.00	620.88
504.00	622.03
505.00	620.18
506.00	623.41
507.00	624.34
508.00	623.98
509.00	623.59
510.00	624.75
511.00	631.21
512.00	631.04
513.00	635.37
514.00	637.00
515.00	641.85
516.00	644.92
517.00	650.90
518.00	659.81
519.00	667.68
520.00	676.15
521.00	681.39
522.00	690.83
523.00	700.52
524.00	710.59
525.00	720.08
526.00	730.65
527.00	743.79
528.00	755.11
529.00	770.04
530.00	776.67
531.00	791.15
532.00	804.44
533.00	811.31
534.00	821.18
535.00	832.63
536.00	838.27
537.00	847.15
538.00	855.09
539.00	855.14
540.00	858.05
541.00	864.88
542.00	867.53
543.00	866.16
544.00	867.22
545.00	859.67
546.00	862.61
547.00	855.50
548.00	850.72
549.00	851.10
550.00	846.60
551.00	843.76
552.00	843.28
553.00	842.52
554.00	846.05
555.00	844.74
556.00	846.25
557.00	848.08
558.00	846.63
559.00	850.46
560.00	853.19
561.00	856.25
562.00	865.93
563.00	865.05
564.00	873.47
565.00	881.70
566.00	886.77
567.00	891.76
568.00	893.95
569.00	898.81
570.00	909.86
571.00	929.60
572.00	925.78
573.00	937.67
574.00	945.41
575.00	950.45
576.00	961.71
577.00	966.44
578.00	976.24
579.00	984.50
580.00	992.24
581.00	995.80
582.00	1000.42
583.00	1009.06
584.00	1014.38
585.00	1008.11
586.00	1012.60
587.00	1013.93
588.00	1012.70
589.00	1014.34
590.00	1010.31
591.00	1010.98
592.00	1007.75
593.00	1006.58
594.00	1008.14
595.00	1003.13
596.00	1000.90
597.00	996.86
598.00	994.63
599.00	995.79
600.00	995.17
601.00	989.62
602.00	986.22
603.00	990.97
604.00	988.84
605.00	987.02
606.00	989.22
607.00	990.29
608.00	989.02
609.00	989.43
610.00	987.40
611.00	1000.94
612.00	1001.65
613.00	1001.69
614.00	1002.42
615.00	1005.14
616.00	1007.05
617.00	1007.74
618.00	1011.49
619.00	1027.26
620.00	1019.82
621.00	1025.38
622.00	1028.18
623.00	1032.33
624.00	1038.15
625.00	1041.11
626.00	1045.29
627.00	1051.38
628.00	1057.42
629.00	1066.11
630.00	1065.49
631.00	1074.62
632.00	1073.20
633.00	1070.88
634.00	1077.62
635.00	1079.15
636.00	1082.31
637.00	1078.70
638.00	1082.10
639.00	1077.82
640.00	1084.72
641.00	1077.75
642.00	1070.60
643.00	1071.38
644.00	1066.01
645.00	1061.66
646.00	1055.48
647.00	1050.57
648.00	1044.66
649.00	1039.89
650.00	1034.28
651.00	1031.01
652.00	1021.33
653.00	1016.08
654.00	1008.30
655.00	1002.11
656.00	995.36
657.00	990.93
658.00	987.21
659.00	978.98
660.00	975.62
661.00	967.86
662.00	964.01
663.00	967.15
664.00	960.25
665.00	948.49
666.00	947.97
667.00	944.10
668.00	942.52
669.00	933.93
670.00	935.66
671.00	932.43
672.00	927.40
673.00	928.02
674.00	924.14
675.00	916.97
676.00	924.58
677.00	918.93
678.00	922.24
679.00	919.31
680.00	915.75
681.00	916.31
682.00	918.63
683.00	911.49
684.00	919.22
685.00	917.16
686.00	909.57
687.00	912.68
688.00	914.58
689.00	918.16
690.00	917.65
691.00	918.77
692.00	917.29
693.00	917.20
694.00	923.78
695.00	925.97
696.00	923.94
697.00	928.12
698.00	926.32
699.00	926.65
700.00	923.95
701.00	926.53
702.00	926.32
703.00	923.67
704.00	920.15
705.00	924.49
706.00	914.35
707.00	914.00
708.00	915.33
709.00	914.91
710.00	909.92
711.00	904.58
712.00	903.73
713.00	891.68
714.00	887.46
715.00	882.58
716.00	875.31
717.00	867.91
718.00	858.86
719.00	850.63
720.00	840.94
721.00	831.26
722.00	820.06
723.00	814.09
724.00	807.16
725.00	810.43
726.00	789.77
727.00	779.63
728.00	778.75
729.00	773.67
730.00	767.71
731.00	763.08
732.00	759.65
733.00	755.30
734.00	745.89
735.00	746.72
736.00	736.86
737.00	730.03
738.00	733.32
739.00	722.42
740.00	723.09
741.00	717.96
742.00	706.80
743.00	706.01
744.00	699.29
745.00	699.29
746.00	685.77
747.00	686.84
748.00	679.58
749.00	674.83
750.00	668.53
751.00	669.33
752.00	660.40
753.00	663.76
754.00	658.45
755.00	654.23
756.00	648.79
757.00	648.04
758.00	646.99
759.00	649.16
760.00	639.78
761.00	639.49
762.00	635.50
763.00	631.03
764.00	623.03
765.00	621.56
766.00	621.38
767.00	619.26
768.00	613.23
769.00	613.90
770.00	608.71
771.00	607.56
772.00	606.48
773.00	604.23
774.00	600.80
775.00	598.13
776.00	592.40
777.00	592.12
778.00	584.29
779.00	587.78
780.00	581.19
781.00	581.66
782.00	580.81
783.00	581.62
784.00	581.27
785.00	582.62
786.00	584.59
787.00	585.79
788.00	589.25
789.00	592.33
790.00	590.19
791.00	592.19
792.00	594.51
793.00	597.33
794.00	597.03
795.00	598.40
796.00	597.78
797.00	599.19
798.00	601.69
799.00	600.52
800.00	598.75
801.00	596.11
802.00	596.38
803.00	594.89
804.00	589.36
805.00	588.44
806.00	587.67
807.00	584.39
808.00	582.61
809.00	578.33
810.00	573.99
811.00	569.77
812.00	566.16
813.00	562.50
814.00	556.85
815.00	552.77
816.00	548.33
817.00	545.65
818.00	540.02
819.00	535.06
820.00	529.19
821.00	524.91
822.00	521.99
823.00	517.13
824.00	510.59
825.00	511.32
826.00	503.16
827.00	497.99
828.00	492.77
829.00	490.48
830.00	483.65
831.00	479.84
832.00	476.28
833.00	472.65
834.00	465.70
835.00	465.89
836.00	460.64
837.00	455.85
838.00	452.61
839.00	449.45
840.00	444.90
841.00	440.67
842.00	439.43
843.00	436.12
844.00	432.25
845.00	428.02
846.00	424.77
847.00	419.58
848.00	417.48
849.00	414.74
850.00	413.84
851.00	410.07
852.00	406.33
853.00	405.14
854.00	401.11
855.00	397.68
856.00	399.25
857.00	393.76
858.00	390.81
859.00	388.17
860.00	385.64
861.00	386.96
862.00	380.81
863.00	377.19
864.00	376.91
865.00	374.09
866.00	370.42
867.00	370.37
868.00	368.09
869.00	363.42
870.00	360.99
871.00	359.17
872.00	358.41
873.00	354.61
874.00	350.00
875.00	349.71
876.00	346.88
877.00	345.75
878.00	341.96
879.00	340.37
880.00	339.55
881.00	338.77
882.00	336.38
883.00	333.62
884.00	332.87
885.00	331.36
886.00	329.45
887.00	328.31
888.00	326.62
889.00	325.13
890.00	325.41
891.00	325.44
892.00	323.96
893.00	322.45
894.00	321.35
895.00	323.67
896.00	320.87
897.00	319.59
898.00	320.66
899.00	319.81
900.00	320.59
901.00	321.20
902.00	320.06
903.00	323.14
904.00	319.63
905.00	319.95
906.00	322.22
907.00	320.85
908.00	319.93
909.00	319.13
910.00	318.89
911.00	318.61
912.00	318.37
913.00	317.28
914.00	316.93
915.00	316.08
916.00	315.43
917.00	314.61
918.00	312.17
919.00	311.82
920.00	309.04
921.00	309.61
922.00	305.65
923.00	305.09
924.00	302.81
925.00	301.28
926.00	298.58
927.00	296.98
928.00	292.97
929.00	292.01
930.00	290.16
931.00	286.83
932.00	284.24
933.00	282.57
934.00	278.71
935.00	275.70
936.00	271.86
937.00	267.72
938.00	263.85
939.00	258.60
940.00	253.11
941.00	249.97
942.00	247.91
943.00	243.95
944.00	241.39
945.00	243.93
946.00	239.75
947.00	239.38
948.00	238.75
949.00	239.11
950.00	239.53
951.00	239.90
952.00	239.22
953.00	240.29
954.00	239.49
955.00	241.64
956.00	240.74
957.00	240.63
958.00	240.48
959.00	240.75
960.00	240.59
961.00	239.91
962.00	240.06
963.00	239.87
964.00	239.22
965.00	238.46
966.00	237.98
967.00	238.71
968.00	237.58
969.00	236.90
970.00	236.26
971.00	236.64
972.00	235.38
973.00	236.99
974.00	235.11
975.00	233.73
976.00	234.19
977.00	232.31
978.00	232.55
979.00	231.78
980.00	230.40
981.00	230.06
982.00	230.38
983.00	231.38
984.00	229.16
985.00	229.85
986.00	227.85
987.00	227.40
988.00	227.99
989.00	226.78
990.00	225.43
991.00	225.81
992.00	224.90
993.00	225.59
994.00	224.69
995.00	224.06
996.00	223.65
997.00	223.85
998.00	223.26
999.00	223.12
1000.00	221.52
>>>>>End Processed Spectral Data<<<<<
