SpectraSuite Data File
++++++++++++++++++++++++++++++++++++
Date: Fri Jan 27 16:16:34 CST 2012
User: Helimak
Dark Spectrum Present: No
Reference Spectrum Present: No
Number of Sampled Component Spectra: 1
Spectrometers: USB2G37154
Integration Time (usec): 150000 (USB2G37154)
Spectra Averaged: 200 (USB2G37154)
Boxcar Smoothing: 0 (USB2G37154)
Correct for Electrical Dark: No (USB2G37154)
Strobe/Lamp Enabled: No (USB2G37154)
Correct for Detector Non-linearity: No (USB2G37154)
Correct for Stray Light: No (USB2G37154)
Number of Pixels in Processed Spectrum: 651
>>>>>Begin Processed Spectral Data<<<<<
350.00	214.02
351.00	214.62
352.00	214.09
353.00	214.42
354.00	214.77
355.00	215.56
356.00	215.33
357.00	214.42
358.00	216.26
359.00	215.22
360.00	215.49
361.00	215.03
362.00	217.32
363.00	215.24
364.00	217.01
365.00	215.74
366.00	215.90
367.00	215.80
368.00	215.61
369.00	216.41
370.00	216.46
371.00	215.69
372.00	216.63
373.00	216.63
374.00	217.58
375.00	219.07
376.00	216.39
377.00	217.02
378.00	218.95
379.00	216.91
380.00	217.02
381.00	217.15
382.00	217.72
383.00	218.51
384.00	217.14
385.00	217.80
386.00	217.70
387.00	218.23
388.00	217.24
389.00	218.00
390.00	218.36
391.00	218.84
392.00	218.41
393.00	218.63
394.00	219.46
395.00	218.65
396.00	219.04
397.00	219.65
398.00	219.57
399.00	220.58
400.00	220.62
401.00	220.45
402.00	221.96
403.00	223.15
404.00	223.80
405.00	225.19
406.00	225.95
407.00	227.78
408.00	229.45
409.00	231.28
410.00	232.86
411.00	234.95
412.00	237.89
413.00	241.08
414.00	243.16
415.00	246.10
416.00	248.79
417.00	252.74
418.00	255.55
419.00	258.52
420.00	262.54
421.00	265.68
422.00	270.24
423.00	274.57
424.00	278.05
425.00	282.99
426.00	286.79
427.00	293.82
428.00	293.91
429.00	297.71
430.00	299.51
431.00	301.65
432.00	306.97
433.00	305.12
434.00	304.51
435.00	309.50
436.00	309.00
437.00	312.65
438.00	307.46
439.00	310.54
440.00	310.98
441.00	313.41
442.00	312.70
443.00	314.71
444.00	317.74
445.00	319.15
446.00	322.74
447.00	325.92
448.00	329.74
449.00	334.13
450.00	338.20
451.00	344.80
452.00	349.89
453.00	357.04
454.00	359.60
455.00	365.98
456.00	373.03
457.00	376.08
458.00	378.03
459.00	380.22
460.00	382.76
461.00	382.66
462.00	386.82
463.00	383.99
464.00	383.05
465.00	386.19
466.00	388.11
467.00	384.26
468.00	385.71
469.00	387.62
470.00	387.91
471.00	390.18
472.00	395.32
473.00	398.19
474.00	403.24
475.00	406.94
476.00	413.81
477.00	422.04
478.00	428.63
479.00	436.10
480.00	445.17
481.00	453.85
482.00	464.07
483.00	473.66
484.00	488.18
485.00	499.80
486.00	513.72
487.00	524.57
488.00	536.47
489.00	552.25
490.00	561.33
491.00	572.13
492.00	583.81
493.00	593.25
494.00	599.57
495.00	604.25
496.00	608.45
497.00	614.34
498.00	615.78
499.00	617.45
500.00	618.53
501.00	618.28
502.00	616.57
503.00	618.01
504.00	619.52
505.00	616.74
506.00	620.27
507.00	621.65
508.00	621.37
509.00	620.60
510.00	622.09
511.00	628.74
512.00	627.57
513.00	632.43
514.00	635.00
515.00	638.88
516.00	642.29
517.00	647.49
518.00	656.65
519.00	664.14
520.00	672.06
521.00	677.43
522.00	687.59
523.00	696.99
524.00	705.69
525.00	717.88
526.00	727.13
527.00	740.19
528.00	751.99
529.00	765.55
530.00	773.42
531.00	787.96
532.00	801.18
533.00	808.05
534.00	818.37
535.00	827.99
536.00	833.33
537.00	843.80
538.00	851.81
539.00	850.16
540.00	854.75
541.00	863.48
542.00	864.60
543.00	864.89
544.00	863.89
545.00	857.69
546.00	859.23
547.00	853.06
548.00	848.09
549.00	848.44
550.00	843.44
551.00	839.82
552.00	840.29
553.00	839.57
554.00	843.22
555.00	841.80
556.00	843.34
557.00	843.68
558.00	843.04
559.00	845.56
560.00	850.09
561.00	853.73
562.00	862.58
563.00	861.37
564.00	870.04
565.00	876.97
566.00	882.02
567.00	887.40
568.00	889.43
569.00	895.16
570.00	907.07
571.00	925.08
572.00	923.53
573.00	934.33
574.00	941.79
575.00	947.26
576.00	959.42
577.00	963.79
578.00	972.58
579.00	981.05
580.00	989.41
581.00	992.16
582.00	998.39
583.00	1005.52
584.00	1012.31
585.00	1006.35
586.00	1010.16
587.00	1011.39
588.00	1009.53
589.00	1010.66
590.00	1008.05
591.00	1008.93
592.00	1005.00
593.00	1004.21
594.00	1004.23
595.00	1000.59
596.00	997.18
597.00	993.46
598.00	992.67
599.00	993.35
600.00	993.27
601.00	988.46
602.00	984.03
603.00	988.19
604.00	986.34
605.00	982.71
606.00	986.69
607.00	987.46
608.00	987.10
609.00	986.76
610.00	984.57
611.00	999.89
612.00	1000.95
613.00	999.40
614.00	1000.90
615.00	1003.99
616.00	1004.77
617.00	1007.30
618.00	1009.20
619.00	1024.10
620.00	1017.71
621.00	1022.96
622.00	1026.08
623.00	1029.85
624.00	1036.21
625.00	1040.42
626.00	1042.81
627.00	1050.26
628.00	1054.41
629.00	1063.33
630.00	1062.77
631.00	1074.43
632.00	1072.40
633.00	1066.96
634.00	1076.05
635.00	1076.92
636.00	1081.87
637.00	1076.19
638.00	1083.22
639.00	1077.51
640.00	1085.03
641.00	1077.05
642.00	1069.82
643.00	1069.84
644.00	1064.58
645.00	1060.96
646.00	1055.28
647.00	1050.91
648.00	1044.92
649.00	1040.05
650.00	1033.26
651.00	1028.83
652.00	1020.45
653.00	1015.17
654.00	1007.08
655.00	1001.28
656.00	995.79
657.00	988.70
658.00	987.43
659.00	979.62
660.00	974.91
661.00	968.18
662.00	964.74
663.00	966.17
664.00	959.25
665.00	948.00
666.00	947.72
667.00	944.23
668.00	942.01
669.00	933.86
670.00	934.54
671.00	931.96
672.00	927.59
673.00	925.33
674.00	923.00
675.00	917.90
676.00	923.52
677.00	919.25
678.00	921.50
679.00	917.85
680.00	916.04
681.00	916.57
682.00	918.16
683.00	912.03
684.00	920.21
685.00	917.05
686.00	909.26
687.00	912.02
688.00	914.51
689.00	919.12
690.00	919.71
691.00	919.74
692.00	917.12
693.00	918.67
694.00	923.08
695.00	926.24
696.00	924.27
697.00	929.15
698.00	925.01
699.00	927.13
700.00	923.83
701.00	926.84
702.00	926.91
703.00	923.32
704.00	921.56
705.00	925.77
706.00	916.12
707.00	914.94
708.00	915.23
709.00	915.60
710.00	909.95
711.00	905.08
712.00	903.28
713.00	891.75
714.00	887.40
715.00	883.30
716.00	874.54
717.00	868.48
718.00	858.88
719.00	851.22
720.00	842.99
721.00	831.41
722.00	821.00
723.00	813.02
724.00	804.83
725.00	810.31
726.00	790.29
727.00	780.63
728.00	780.36
729.00	773.49
730.00	768.61
731.00	762.81
732.00	760.59
733.00	756.01
734.00	747.16
735.00	746.86
736.00	736.89
737.00	731.21
738.00	734.48
739.00	723.14
740.00	724.24
741.00	719.01
742.00	707.92
743.00	705.86
744.00	700.76
745.00	700.88
746.00	688.26
747.00	687.24
748.00	680.93
749.00	675.35
750.00	668.86
751.00	669.80
752.00	662.42
753.00	665.22
754.00	658.68
755.00	656.08
756.00	649.86
757.00	649.06
758.00	648.22
759.00	650.24
760.00	639.88
761.00	640.02
762.00	637.34
763.00	632.14
764.00	625.27
765.00	621.81
766.00	621.77
767.00	620.46
768.00	615.17
769.00	614.15
770.00	610.15
771.00	608.31
772.00	606.33
773.00	605.07
774.00	601.36
775.00	599.49
776.00	592.39
777.00	591.98
778.00	586.27
779.00	588.77
780.00	581.94
781.00	581.53
782.00	581.16
783.00	582.42
784.00	581.02
785.00	583.70
786.00	585.32
787.00	586.38
788.00	589.76
789.00	594.21
790.00	591.71
791.00	593.43
792.00	595.57
793.00	598.37
794.00	596.63
795.00	599.06
796.00	599.41
797.00	600.13
798.00	601.92
799.00	600.82
800.00	599.81
801.00	597.10
802.00	596.51
803.00	595.56
804.00	590.00
805.00	588.98
806.00	588.74
807.00	584.48
808.00	583.11
809.00	579.50
810.00	575.01
811.00	570.85
812.00	567.07
813.00	564.16
814.00	558.36
815.00	553.68
816.00	548.62
817.00	545.87
818.00	540.98
819.00	534.89
820.00	530.37
821.00	525.80
822.00	522.11
823.00	518.33
824.00	511.42
825.00	511.81
826.00	503.91
827.00	498.40
828.00	493.68
829.00	490.94
830.00	483.44
831.00	480.20
832.00	476.92
833.00	474.03
834.00	467.90
835.00	466.75
836.00	461.08
837.00	455.91
838.00	452.58
839.00	449.76
840.00	445.47
841.00	441.47
842.00	439.53
843.00	437.05
844.00	432.27
845.00	429.76
846.00	425.87
847.00	420.81
848.00	417.98
849.00	415.45
850.00	414.22
851.00	410.48
852.00	408.27
853.00	405.40
854.00	401.33
855.00	397.78
856.00	400.02
857.00	394.42
858.00	391.28
859.00	388.91
860.00	385.74
861.00	387.09
862.00	381.25
863.00	378.51
864.00	377.69
865.00	374.32
866.00	371.16
867.00	371.05
868.00	368.48
869.00	363.74
870.00	361.62
871.00	359.93
872.00	358.65
873.00	355.84
874.00	351.02
875.00	350.12
876.00	347.67
877.00	346.03
878.00	342.33
879.00	340.77
880.00	338.99
881.00	339.00
882.00	337.06
883.00	334.55
884.00	333.27
885.00	331.77
886.00	329.70
887.00	328.78
888.00	327.24
889.00	326.32
890.00	325.81
891.00	326.10
892.00	323.82
893.00	322.73
894.00	321.66
895.00	323.82
896.00	320.57
897.00	320.49
898.00	321.09
899.00	319.92
900.00	321.28
901.00	321.39
902.00	320.21
903.00	324.04
904.00	320.31
905.00	320.98
906.00	322.83
907.00	320.90
908.00	320.19
909.00	318.76
910.00	319.50
911.00	318.74
912.00	318.59
913.00	317.62
914.00	317.44
915.00	316.21
916.00	316.20
917.00	315.04
918.00	312.55
919.00	312.27
920.00	309.04
921.00	309.70
922.00	305.95
923.00	304.88
924.00	302.92
925.00	301.50
926.00	298.83
927.00	296.85
928.00	293.50
929.00	291.98
930.00	290.09
931.00	286.77
932.00	284.21
933.00	282.79
934.00	278.63
935.00	275.22
936.00	271.99
937.00	267.70
938.00	263.94
939.00	258.77
940.00	253.12
941.00	249.57
942.00	247.66
943.00	244.11
944.00	241.67
945.00	243.93
946.00	239.60
947.00	239.49
948.00	238.89
949.00	239.26
950.00	239.77
951.00	240.15
952.00	239.74
953.00	240.47
954.00	239.33
955.00	241.56
956.00	240.68
957.00	241.09
958.00	241.14
959.00	240.67
960.00	240.46
961.00	240.31
962.00	239.99
963.00	239.51
964.00	239.36
965.00	238.35
966.00	238.01
967.00	239.08
968.00	237.68
969.00	237.19
970.00	236.60
971.00	236.44
972.00	235.47
973.00	237.11
974.00	235.11
975.00	233.81
976.00	234.59
977.00	232.27
978.00	232.04
979.00	231.70
980.00	230.64
981.00	230.11
982.00	230.47
983.00	231.49
984.00	228.97
985.00	229.53
986.00	227.89
987.00	227.59
988.00	227.96
989.00	226.92
990.00	225.57
991.00	225.88
992.00	225.19
993.00	225.45
994.00	224.73
995.00	224.20
996.00	223.59
997.00	223.43
998.00	222.91
999.00	223.20
1000.00	222.02
>>>>>End Processed Spectral Data<<<<<
