SpectraSuite Data File
++++++++++++++++++++++++++++++++++++
Date: Fri Jan 27 16:17:36 CST 2012
User: Helimak
Dark Spectrum Present: No
Reference Spectrum Present: No
Number of Sampled Component Spectra: 1
Spectrometers: USB2G37154
Integration Time (usec): 150000 (USB2G37154)
Spectra Averaged: 200 (USB2G37154)
Boxcar Smoothing: 0 (USB2G37154)
Correct for Electrical Dark: No (USB2G37154)
Strobe/Lamp Enabled: No (USB2G37154)
Correct for Detector Non-linearity: No (USB2G37154)
Correct for Stray Light: No (USB2G37154)
Number of Pixels in Processed Spectrum: 651
>>>>>Begin Processed Spectral Data<<<<<
350.00	214.01
351.00	214.47
352.00	213.76
353.00	214.16
354.00	214.87
355.00	215.29
356.00	215.42
357.00	214.45
358.00	216.50
359.00	215.08
360.00	215.32
361.00	214.49
362.00	217.08
363.00	214.98
364.00	216.67
365.00	215.93
366.00	215.64
367.00	215.84
368.00	215.50
369.00	215.93
370.00	216.23
371.00	215.77
372.00	216.69
373.00	216.56
374.00	217.11
375.00	219.02
376.00	216.45
377.00	216.97
378.00	218.80
379.00	216.86
380.00	216.97
381.00	217.40
382.00	217.44
383.00	218.59
384.00	217.47
385.00	217.84
386.00	217.77
387.00	218.21
388.00	217.54
389.00	217.79
390.00	218.37
391.00	218.62
392.00	218.23
393.00	218.54
394.00	219.59
395.00	219.08
396.00	219.11
397.00	219.55
398.00	219.50
399.00	220.24
400.00	220.30
401.00	220.63
402.00	222.15
403.00	223.24
404.00	223.91
405.00	225.52
406.00	225.92
407.00	227.68
408.00	229.12
409.00	231.62
410.00	232.97
411.00	235.28
412.00	238.47
413.00	241.04
414.00	243.14
415.00	246.92
416.00	249.12
417.00	252.74
418.00	256.15
419.00	259.13
420.00	262.94
421.00	265.67
422.00	270.42
423.00	274.19
424.00	278.14
425.00	283.12
426.00	286.70
427.00	293.72
428.00	294.41
429.00	297.36
430.00	299.31
431.00	301.49
432.00	307.04
433.00	305.43
434.00	304.52
435.00	309.22
436.00	308.91
437.00	312.30
438.00	307.36
439.00	311.09
440.00	310.94
441.00	312.88
442.00	312.61
443.00	315.23
444.00	317.65
445.00	319.78
446.00	323.06
447.00	326.68
448.00	330.04
449.00	334.51
450.00	338.52
451.00	345.49
452.00	350.26
453.00	357.69
454.00	360.87
455.00	366.27
456.00	373.15
457.00	375.71
458.00	378.36
459.00	380.92
460.00	382.97
461.00	383.14
462.00	387.13
463.00	384.70
464.00	383.98
465.00	387.36
466.00	387.94
467.00	384.58
468.00	386.97
469.00	387.20
470.00	388.41
471.00	391.07
472.00	395.22
473.00	398.82
474.00	403.67
475.00	408.00
476.00	415.23
477.00	422.62
478.00	429.82
479.00	436.77
480.00	446.29
481.00	454.78
482.00	464.77
483.00	474.35
484.00	488.29
485.00	500.70
486.00	513.98
487.00	524.42
488.00	537.70
489.00	552.43
490.00	561.73
491.00	572.73
492.00	584.92
493.00	594.28
494.00	600.47
495.00	604.43
496.00	609.49
497.00	614.75
498.00	616.63
499.00	618.14
500.00	619.18
501.00	618.69
502.00	617.44
503.00	619.77
504.00	620.61
505.00	617.64
506.00	620.92
507.00	623.05
508.00	622.79
509.00	622.40
510.00	623.49
511.00	629.02
512.00	628.58
513.00	633.10
514.00	635.91
515.00	640.22
516.00	643.71
517.00	649.07
518.00	658.06
519.00	665.38
520.00	672.99
521.00	679.31
522.00	688.26
523.00	698.33
524.00	708.00
525.00	717.82
526.00	728.03
527.00	741.25
528.00	753.03
529.00	767.36
530.00	775.69
531.00	788.27
532.00	802.72
533.00	809.66
534.00	819.01
535.00	829.26
536.00	835.63
537.00	845.13
538.00	853.09
539.00	852.36
540.00	855.89
541.00	862.71
542.00	866.24
543.00	865.08
544.00	865.29
545.00	858.49
546.00	861.19
547.00	854.86
548.00	849.43
549.00	849.63
550.00	845.52
551.00	844.08
552.00	841.15
553.00	840.22
554.00	844.41
555.00	842.59
556.00	844.68
557.00	845.73
558.00	843.89
559.00	847.53
560.00	851.75
561.00	854.70
562.00	866.58
563.00	863.18
564.00	870.83
565.00	879.09
566.00	883.73
567.00	889.32
568.00	891.05
569.00	897.53
570.00	908.75
571.00	926.92
572.00	924.33
573.00	936.29
574.00	943.42
575.00	949.05
576.00	960.99
577.00	963.78
578.00	972.93
579.00	982.37
580.00	990.01
581.00	993.75
582.00	998.92
583.00	1006.04
584.00	1014.02
585.00	1007.81
586.00	1011.28
587.00	1012.62
588.00	1010.98
589.00	1013.79
590.00	1010.62
591.00	1009.45
592.00	1006.40
593.00	1005.49
594.00	1006.47
595.00	1002.90
596.00	998.95
597.00	994.32
598.00	993.15
599.00	994.24
600.00	993.88
601.00	990.07
602.00	985.91
603.00	988.68
604.00	986.80
605.00	984.65
606.00	987.20
607.00	987.80
608.00	989.02
609.00	988.12
610.00	986.42
611.00	999.98
612.00	1001.55
613.00	999.80
614.00	1001.33
615.00	1003.52
616.00	1005.20
617.00	1005.92
618.00	1010.38
619.00	1026.49
620.00	1017.03
621.00	1023.40
622.00	1026.52
623.00	1030.19
624.00	1036.14
625.00	1040.58
626.00	1044.00
627.00	1049.95
628.00	1055.85
629.00	1063.58
630.00	1064.46
631.00	1074.69
632.00	1072.95
633.00	1068.92
634.00	1076.82
635.00	1076.91
636.00	1080.95
637.00	1077.39
638.00	1082.79
639.00	1076.09
640.00	1083.95
641.00	1078.05
642.00	1070.50
643.00	1071.54
644.00	1064.99
645.00	1059.83
646.00	1055.86
647.00	1051.83
648.00	1044.43
649.00	1038.45
650.00	1033.63
651.00	1028.77
652.00	1020.94
653.00	1015.52
654.00	1008.37
655.00	1000.72
656.00	994.67
657.00	989.02
658.00	987.67
659.00	978.13
660.00	975.50
661.00	968.17
662.00	965.15
663.00	966.26
664.00	960.25
665.00	948.07
666.00	947.39
667.00	943.83
668.00	942.06
669.00	931.65
670.00	935.13
671.00	931.48
672.00	926.68
673.00	926.85
674.00	923.02
675.00	918.52
676.00	924.08
677.00	919.01
678.00	921.80
679.00	917.73
680.00	915.21
681.00	916.94
682.00	918.72
683.00	912.46
684.00	920.64
685.00	919.02
686.00	911.81
687.00	912.53
688.00	915.08
689.00	917.53
690.00	917.56
691.00	918.98
692.00	918.10
693.00	918.76
694.00	924.14
695.00	925.08
696.00	923.95
697.00	929.12
698.00	926.57
699.00	926.59
700.00	924.85
701.00	926.91
702.00	925.74
703.00	924.59
704.00	922.03
705.00	926.08
706.00	915.50
707.00	913.85
708.00	914.36
709.00	915.72
710.00	909.97
711.00	904.07
712.00	902.86
713.00	891.97
714.00	887.48
715.00	882.52
716.00	875.01
717.00	867.51
718.00	859.02
719.00	851.75
720.00	840.69
721.00	831.30
722.00	820.47
723.00	814.37
724.00	805.39
725.00	810.20
726.00	790.77
727.00	780.96
728.00	778.86
729.00	773.38
730.00	768.43
731.00	763.56
732.00	759.09
733.00	755.43
734.00	747.45
735.00	747.03
736.00	736.63
737.00	730.13
738.00	733.32
739.00	721.53
740.00	722.92
741.00	716.84
742.00	707.37
743.00	705.96
744.00	699.79
745.00	700.56
746.00	686.58
747.00	687.03
748.00	679.95
749.00	675.13
750.00	668.31
751.00	668.61
752.00	661.30
753.00	664.83
754.00	658.42
755.00	654.63
756.00	649.20
757.00	648.03
758.00	647.31
759.00	648.98
760.00	639.49
761.00	639.24
762.00	637.39
763.00	631.23
764.00	623.46
765.00	621.88
766.00	620.49
767.00	619.71
768.00	613.26
769.00	614.28
770.00	609.37
771.00	609.31
772.00	607.33
773.00	604.57
774.00	600.44
775.00	599.32
776.00	591.78
777.00	592.38
778.00	585.27
779.00	589.22
780.00	582.02
781.00	581.45
782.00	580.72
783.00	581.38
784.00	580.53
785.00	583.05
786.00	584.23
787.00	586.60
788.00	589.42
789.00	593.07
790.00	591.76
791.00	592.67
792.00	594.60
793.00	597.73
794.00	597.58
795.00	599.09
796.00	598.26
797.00	599.29
798.00	601.88
799.00	600.47
800.00	599.42
801.00	596.28
802.00	596.15
803.00	595.63
804.00	589.68
805.00	587.85
806.00	587.96
807.00	584.62
808.00	583.08
809.00	577.84
810.00	574.19
811.00	570.49
812.00	566.75
813.00	563.17
814.00	557.46
815.00	552.91
816.00	548.62
817.00	545.87
818.00	540.33
819.00	534.79
820.00	528.94
821.00	524.60
822.00	521.27
823.00	517.03
824.00	510.65
825.00	511.39
826.00	502.89
827.00	497.84
828.00	493.22
829.00	490.45
830.00	482.70
831.00	479.44
832.00	476.92
833.00	472.49
834.00	466.28
835.00	466.56
836.00	460.93
837.00	456.03
838.00	452.70
839.00	448.83
840.00	445.40
841.00	441.25
842.00	439.20
843.00	436.27
844.00	431.74
845.00	428.48
846.00	425.10
847.00	419.81
848.00	418.22
849.00	415.13
850.00	413.89
851.00	410.81
852.00	406.83
853.00	405.10
854.00	400.41
855.00	397.77
856.00	399.20
857.00	393.58
858.00	391.55
859.00	388.00
860.00	386.15
861.00	387.23
862.00	380.80
863.00	378.05
864.00	377.25
865.00	374.14
866.00	370.24
867.00	370.31
868.00	367.82
869.00	363.81
870.00	360.89
871.00	359.41
872.00	358.01
873.00	355.51
874.00	350.42
875.00	349.76
876.00	346.83
877.00	345.63
878.00	342.26
879.00	340.64
880.00	339.65
881.00	338.50
882.00	337.06
883.00	333.99
884.00	333.05
885.00	332.02
886.00	329.50
887.00	328.86
888.00	326.52
889.00	326.11
890.00	325.13
891.00	325.79
892.00	323.83
893.00	322.47
894.00	321.36
895.00	323.90
896.00	320.91
897.00	320.01
898.00	320.65
899.00	319.96
900.00	320.31
901.00	321.36
902.00	320.22
903.00	323.75
904.00	320.20
905.00	320.10
906.00	322.27
907.00	320.70
908.00	319.78
909.00	318.72
910.00	319.16
911.00	318.51
912.00	318.53
913.00	317.69
914.00	317.29
915.00	316.48
916.00	315.81
917.00	315.19
918.00	312.54
919.00	312.06
920.00	309.44
921.00	309.99
922.00	305.34
923.00	304.77
924.00	302.78
925.00	301.39
926.00	299.24
927.00	296.52
928.00	293.27
929.00	292.27
930.00	289.70
931.00	286.94
932.00	284.05
933.00	282.63
934.00	278.63
935.00	275.75
936.00	271.69
937.00	267.56
938.00	263.68
939.00	258.71
940.00	253.14
941.00	249.85
942.00	247.72
943.00	244.09
944.00	241.57
945.00	243.22
946.00	239.31
947.00	239.84
948.00	238.93
949.00	239.09
950.00	239.63
951.00	240.13
952.00	239.46
953.00	239.99
954.00	239.28
955.00	241.87
956.00	240.41
957.00	241.02
958.00	240.77
959.00	240.61
960.00	240.31
961.00	239.93
962.00	240.11
963.00	239.50
964.00	239.39
965.00	238.50
966.00	238.15
967.00	238.36
968.00	238.07
969.00	237.00
970.00	236.22
971.00	236.74
972.00	235.75
973.00	236.73
974.00	235.23
975.00	233.61
976.00	234.28
977.00	232.25
978.00	232.26
979.00	231.96
980.00	230.73
981.00	230.37
982.00	230.35
983.00	230.95
984.00	229.05
985.00	229.39
986.00	227.68
987.00	227.40
988.00	228.07
989.00	226.57
990.00	225.44
991.00	225.96
992.00	225.26
993.00	225.19
994.00	224.82
995.00	223.79
996.00	223.87
997.00	223.82
998.00	223.02
999.00	223.12
1000.00	221.80
>>>>>End Processed Spectral Data<<<<<
