SpectraSuite Data File
++++++++++++++++++++++++++++++++++++
Date: Fri Jan 27 16:45:45 CST 2012
User: Helimak
Dark Spectrum Present: No
Reference Spectrum Present: No
Number of Sampled Component Spectra: 1
Spectrometers: USB2G37154
Integration Time (usec): 150000 (USB2G37154)
Spectra Averaged: 200 (USB2G37154)
Boxcar Smoothing: 0 (USB2G37154)
Correct for Electrical Dark: No (USB2G37154)
Strobe/Lamp Enabled: No (USB2G37154)
Correct for Detector Non-linearity: No (USB2G37154)
Correct for Stray Light: No (USB2G37154)
Number of Pixels in Processed Spectrum: 651
>>>>>Begin Processed Spectral Data<<<<<
350.00	214.12
351.00	214.89
352.00	214.16
353.00	214.42
354.00	214.38
355.00	215.44
356.00	215.19
357.00	214.54
358.00	216.41
359.00	214.92
360.00	215.45
361.00	214.75
362.00	216.97
363.00	214.90
364.00	216.91
365.00	215.94
366.00	215.88
367.00	215.49
368.00	215.66
369.00	216.42
370.00	216.78
371.00	215.67
372.00	216.69
373.00	216.98
374.00	217.36
375.00	219.15
376.00	216.34
377.00	216.79
378.00	218.72
379.00	217.31
380.00	217.27
381.00	217.10
382.00	217.53
383.00	219.02
384.00	217.70
385.00	217.88
386.00	217.38
387.00	218.27
388.00	217.51
389.00	217.81
390.00	218.15
391.00	218.56
392.00	218.22
393.00	218.63
394.00	219.60
395.00	219.14
396.00	219.28
397.00	219.70
398.00	219.74
399.00	220.66
400.00	220.47
401.00	220.68
402.00	222.02
403.00	223.12
404.00	223.88
405.00	225.39
406.00	226.36
407.00	227.78
408.00	229.25
409.00	231.44
410.00	233.06
411.00	235.26
412.00	237.85
413.00	241.01
414.00	243.29
415.00	246.83
416.00	249.16
417.00	253.11
418.00	255.95
419.00	259.39
420.00	262.96
421.00	265.85
422.00	270.86
423.00	274.98
424.00	278.34
425.00	282.97
426.00	286.59
427.00	293.67
428.00	294.22
429.00	297.44
430.00	299.66
431.00	301.76
432.00	306.85
433.00	305.41
434.00	304.51
435.00	308.82
436.00	309.02
437.00	312.64
438.00	307.50
439.00	310.75
440.00	311.22
441.00	312.84
442.00	313.13
443.00	315.21
444.00	318.26
445.00	320.16
446.00	323.38
447.00	326.78
448.00	330.36
449.00	334.69
450.00	338.53
451.00	345.51
452.00	350.74
453.00	357.77
454.00	360.26
455.00	366.06
456.00	373.15
457.00	376.90
458.00	378.45
459.00	381.19
460.00	383.32
461.00	383.66
462.00	387.62
463.00	384.74
464.00	384.19
465.00	387.38
466.00	388.37
467.00	385.02
468.00	386.55
469.00	387.65
470.00	389.07
471.00	391.34
472.00	396.15
473.00	398.77
474.00	404.24
475.00	407.64
476.00	414.57
477.00	422.54
478.00	429.41
479.00	437.33
480.00	446.05
481.00	455.29
482.00	465.31
483.00	474.69
484.00	489.48
485.00	500.68
486.00	515.15
487.00	525.60
488.00	538.27
489.00	552.89
490.00	562.23
491.00	573.21
492.00	585.84
493.00	593.96
494.00	601.65
495.00	605.46
496.00	609.88
497.00	615.01
498.00	618.08
499.00	618.76
500.00	619.43
501.00	619.27
502.00	619.02
503.00	619.68
504.00	620.34
505.00	617.77
506.00	622.33
507.00	622.94
508.00	622.36
509.00	621.82
510.00	623.91
511.00	628.52
512.00	630.67
513.00	633.60
514.00	635.81
515.00	640.89
516.00	644.65
517.00	650.02
518.00	658.76
519.00	666.91
520.00	674.22
521.00	680.07
522.00	689.94
523.00	699.22
524.00	709.00
525.00	718.78
526.00	729.64
527.00	742.42
528.00	754.31
529.00	768.60
530.00	776.24
531.00	790.03
532.00	803.22
533.00	809.84
534.00	820.22
535.00	831.31
536.00	836.18
537.00	846.36
538.00	853.60
539.00	852.81
540.00	856.44
541.00	864.31
542.00	867.15
543.00	865.49
544.00	864.56
545.00	858.71
546.00	861.84
547.00	854.44
548.00	849.21
549.00	849.36
550.00	845.60
551.00	842.81
552.00	843.33
553.00	842.34
554.00	843.99
555.00	843.30
556.00	844.95
557.00	845.50
558.00	845.19
559.00	848.37
560.00	851.99
561.00	855.98
562.00	866.89
563.00	864.25
564.00	871.80
565.00	879.46
566.00	884.84
567.00	890.88
568.00	892.19
569.00	898.39
570.00	909.42
571.00	927.69
572.00	925.81
573.00	937.21
574.00	943.23
575.00	949.80
576.00	961.15
577.00	964.90
578.00	974.76
579.00	982.53
580.00	990.65
581.00	994.13
582.00	999.91
583.00	1008.45
584.00	1013.53
585.00	1007.59
586.00	1011.42
587.00	1011.74
588.00	1010.36
589.00	1012.36
590.00	1009.54
591.00	1009.44
592.00	1006.89
593.00	1005.37
594.00	1007.67
595.00	1002.52
596.00	999.76
597.00	995.76
598.00	994.23
599.00	994.59
600.00	993.26
601.00	990.40
602.00	985.46
603.00	989.28
604.00	987.70
605.00	985.67
606.00	988.02
607.00	988.31
608.00	987.01
609.00	986.92
610.00	985.31
611.00	1001.90
612.00	1001.72
613.00	1000.42
614.00	1001.04
615.00	1004.04
616.00	1005.25
617.00	1006.74
618.00	1010.39
619.00	1024.22
620.00	1017.72
621.00	1024.89
622.00	1026.77
623.00	1030.57
624.00	1036.67
625.00	1040.77
626.00	1043.05
627.00	1050.23
628.00	1055.40
629.00	1064.53
630.00	1064.12
631.00	1075.12
632.00	1074.23
633.00	1068.96
634.00	1076.38
635.00	1078.20
636.00	1082.35
637.00	1076.81
638.00	1082.51
639.00	1077.98
640.00	1083.86
641.00	1077.71
642.00	1069.56
643.00	1070.69
644.00	1064.99
645.00	1060.52
646.00	1054.32
647.00	1050.97
648.00	1045.09
649.00	1040.09
650.00	1034.89
651.00	1031.35
652.00	1021.66
653.00	1015.29
654.00	1008.59
655.00	1001.14
656.00	995.35
657.00	989.20
658.00	986.68
659.00	978.98
660.00	974.37
661.00	968.04
662.00	965.13
663.00	967.56
664.00	961.22
665.00	949.65
666.00	947.39
667.00	943.89
668.00	941.52
669.00	933.33
670.00	934.56
671.00	930.96
672.00	926.78
673.00	926.07
674.00	923.21
675.00	917.52
676.00	923.86
677.00	919.51
678.00	921.80
679.00	917.44
680.00	915.38
681.00	917.91
682.00	918.83
683.00	912.08
684.00	919.38
685.00	917.89
686.00	910.04
687.00	912.42
688.00	914.71
689.00	917.04
690.00	917.40
691.00	919.14
692.00	916.86
693.00	918.17
694.00	922.54
695.00	924.75
696.00	922.76
697.00	929.04
698.00	926.15
699.00	927.51
700.00	922.36
701.00	925.74
702.00	925.50
703.00	923.59
704.00	922.01
705.00	926.09
706.00	915.60
707.00	913.39
708.00	914.03
709.00	913.95
710.00	909.09
711.00	904.26
712.00	902.53
713.00	891.45
714.00	886.72
715.00	884.54
716.00	873.94
717.00	868.39
718.00	858.18
719.00	850.91
720.00	840.19
721.00	830.71
722.00	820.15
723.00	813.76
724.00	805.35
725.00	809.64
726.00	789.49
727.00	780.51
728.00	779.42
729.00	774.57
730.00	767.86
731.00	762.91
732.00	759.99
733.00	755.58
734.00	746.75
735.00	747.11
736.00	736.68
737.00	730.83
738.00	732.01
739.00	721.88
740.00	723.04
741.00	717.07
742.00	706.75
743.00	705.67
744.00	699.93
745.00	699.59
746.00	685.41
747.00	685.74
748.00	678.21
749.00	673.54
750.00	669.14
751.00	670.15
752.00	660.55
753.00	663.71
754.00	658.65
755.00	655.25
756.00	648.60
757.00	647.69
758.00	647.02
759.00	648.38
760.00	639.15
761.00	639.14
762.00	635.13
763.00	631.41
764.00	623.17
765.00	621.88
766.00	620.78
767.00	618.77
768.00	614.37
769.00	614.48
770.00	609.10
771.00	608.58
772.00	606.40
773.00	604.57
774.00	601.28
775.00	598.23
776.00	592.73
777.00	592.48
778.00	584.93
779.00	588.07
780.00	581.48
781.00	581.96
782.00	580.51
783.00	580.63
784.00	580.76
785.00	582.59
786.00	583.89
787.00	585.15
788.00	589.53
789.00	593.25
790.00	590.41
791.00	593.39
792.00	592.99
793.00	596.30
794.00	596.22
795.00	598.84
796.00	598.44
797.00	598.78
798.00	600.63
799.00	599.99
800.00	598.21
801.00	596.45
802.00	594.62
803.00	594.55
804.00	588.75
805.00	587.63
806.00	588.00
807.00	584.10
808.00	582.05
809.00	578.23
810.00	573.44
811.00	570.95
812.00	566.78
813.00	562.56
814.00	556.46
815.00	553.48
816.00	548.87
817.00	545.32
818.00	540.04
819.00	534.29
820.00	529.23
821.00	524.76
822.00	521.91
823.00	517.06
824.00	511.25
825.00	510.29
826.00	501.60
827.00	497.48
828.00	493.78
829.00	490.53
830.00	483.04
831.00	479.34
832.00	475.53
833.00	472.46
834.00	466.39
835.00	466.53
836.00	459.99
837.00	455.39
838.00	451.57
839.00	448.19
840.00	444.39
841.00	440.44
842.00	439.52
843.00	435.33
844.00	431.11
845.00	427.88
846.00	424.66
847.00	419.74
848.00	417.39
849.00	414.30
850.00	413.53
851.00	409.95
852.00	406.95
853.00	404.85
854.00	400.16
855.00	397.23
856.00	398.56
857.00	392.97
858.00	390.96
859.00	388.18
860.00	385.63
861.00	386.09
862.00	380.26
863.00	377.36
864.00	376.92
865.00	373.63
866.00	370.92
867.00	370.51
868.00	367.49
869.00	363.33
870.00	360.23
871.00	359.06
872.00	357.50
873.00	355.06
874.00	351.06
875.00	348.92
876.00	346.71
877.00	345.72
878.00	341.74
879.00	340.29
880.00	339.21
881.00	338.35
882.00	336.20
883.00	333.64
884.00	333.16
885.00	331.51
886.00	329.76
887.00	328.15
888.00	326.75
889.00	325.65
890.00	325.41
891.00	325.37
892.00	323.55
893.00	322.99
894.00	321.15
895.00	323.56
896.00	320.56
897.00	319.76
898.00	321.35
899.00	319.60
900.00	320.26
901.00	321.31
902.00	320.08
903.00	323.25
904.00	320.13
905.00	320.17
906.00	322.80
907.00	320.12
908.00	319.77
909.00	318.64
910.00	318.97
911.00	318.76
912.00	318.08
913.00	317.75
914.00	316.75
915.00	316.02
916.00	315.59
917.00	314.60
918.00	312.49
919.00	312.29
920.00	309.82
921.00	309.38
922.00	305.75
923.00	305.28
924.00	302.40
925.00	301.00
926.00	298.64
927.00	296.25
928.00	293.18
929.00	291.87
930.00	289.72
931.00	286.04
932.00	284.48
933.00	282.50
934.00	278.49
935.00	275.05
936.00	271.37
937.00	267.53
938.00	263.69
939.00	258.63
940.00	253.27
941.00	249.71
942.00	248.39
943.00	243.84
944.00	241.10
945.00	243.55
946.00	239.50
947.00	239.42
948.00	238.93
949.00	239.04
950.00	239.39
951.00	239.82
952.00	239.65
953.00	240.42
954.00	239.17
955.00	241.45
956.00	240.54
957.00	240.88
958.00	241.20
959.00	240.31
960.00	240.37
961.00	239.81
962.00	239.71
963.00	239.32
964.00	239.52
965.00	238.23
966.00	237.86
967.00	238.78
968.00	237.51
969.00	236.86
970.00	236.27
971.00	236.50
972.00	235.73
973.00	236.59
974.00	235.29
975.00	233.85
976.00	234.62
977.00	231.92
978.00	232.33
979.00	232.07
980.00	230.46
981.00	229.87
982.00	230.65
983.00	230.95
984.00	229.15
985.00	229.53
986.00	227.92
987.00	227.39
988.00	228.35
989.00	226.69
990.00	225.65
991.00	225.91
992.00	225.02
993.00	225.08
994.00	224.81
995.00	223.92
996.00	223.92
997.00	223.62
998.00	222.97
999.00	222.95
1000.00	221.93
>>>>>End Processed Spectral Data<<<<<
