SpectraSuite Data File
++++++++++++++++++++++++++++++++++++
Date: Fri Jan 27 16:49:51 CST 2012
User: Helimak
Dark Spectrum Present: No
Reference Spectrum Present: No
Number of Sampled Component Spectra: 1
Spectrometers: USB2G37154
Integration Time (usec): 150000 (USB2G37154)
Spectra Averaged: 200 (USB2G37154)
Boxcar Smoothing: 0 (USB2G37154)
Correct for Electrical Dark: No (USB2G37154)
Strobe/Lamp Enabled: No (USB2G37154)
Correct for Detector Non-linearity: No (USB2G37154)
Correct for Stray Light: No (USB2G37154)
Number of Pixels in Processed Spectrum: 651
>>>>>Begin Processed Spectral Data<<<<<
350.00	214.04
351.00	214.75
352.00	213.83
353.00	214.22
354.00	214.70
355.00	215.37
356.00	215.51
357.00	214.33
358.00	216.51
359.00	214.65
360.00	215.03
361.00	214.97
362.00	216.92
363.00	215.35
364.00	216.83
365.00	215.86
366.00	215.89
367.00	215.61
368.00	215.80
369.00	216.10
370.00	216.51
371.00	215.79
372.00	216.79
373.00	216.75
374.00	217.07
375.00	218.94
376.00	216.67
377.00	216.99
378.00	219.03
379.00	216.92
380.00	216.89
381.00	217.14
382.00	217.82
383.00	218.99
384.00	217.40
385.00	217.59
386.00	217.62
387.00	218.48
388.00	217.39
389.00	217.92
390.00	218.29
391.00	218.73
392.00	218.49
393.00	218.39
394.00	219.34
395.00	218.87
396.00	219.10
397.00	219.33
398.00	219.38
399.00	220.39
400.00	220.39
401.00	220.49
402.00	222.13
403.00	222.98
404.00	224.08
405.00	225.44
406.00	226.23
407.00	227.59
408.00	229.14
409.00	231.69
410.00	232.91
411.00	235.31
412.00	237.68
413.00	241.08
414.00	243.16
415.00	246.30
416.00	249.30
417.00	252.76
418.00	255.53
419.00	258.33
420.00	262.26
421.00	265.50
422.00	270.07
423.00	274.32
424.00	278.19
425.00	282.61
426.00	286.30
427.00	293.61
428.00	293.88
429.00	296.77
430.00	299.57
431.00	301.26
432.00	306.52
433.00	305.14
434.00	303.47
435.00	308.96
436.00	308.17
437.00	312.46
438.00	307.19
439.00	309.96
440.00	310.55
441.00	311.88
442.00	311.99
443.00	314.02
444.00	317.38
445.00	318.81
446.00	322.50
447.00	325.80
448.00	329.07
449.00	333.84
450.00	338.24
451.00	344.61
452.00	349.79
453.00	356.44
454.00	359.06
455.00	365.10
456.00	371.80
457.00	375.51
458.00	376.87
459.00	379.74
460.00	381.73
461.00	382.27
462.00	386.31
463.00	383.22
464.00	382.67
465.00	385.89
466.00	387.20
467.00	383.66
468.00	385.12
469.00	386.64
470.00	387.92
471.00	389.72
472.00	393.29
473.00	397.37
474.00	403.02
475.00	405.93
476.00	412.93
477.00	420.94
478.00	427.98
479.00	435.41
480.00	444.29
481.00	452.38
482.00	463.35
483.00	473.03
484.00	486.98
485.00	498.67
486.00	511.14
487.00	522.79
488.00	534.68
489.00	550.52
490.00	559.39
491.00	570.55
492.00	582.31
493.00	591.03
494.00	597.73
495.00	601.83
496.00	606.20
497.00	612.25
498.00	613.27
499.00	614.92
500.00	616.18
501.00	614.85
502.00	614.90
503.00	616.44
504.00	617.47
505.00	614.65
506.00	618.01
507.00	620.08
508.00	618.93
509.00	618.57
510.00	620.30
511.00	626.24
512.00	625.96
513.00	629.54
514.00	632.95
515.00	637.22
516.00	640.39
517.00	645.39
518.00	654.16
519.00	661.81
520.00	669.55
521.00	675.96
522.00	685.22
523.00	695.47
524.00	704.51
525.00	714.68
526.00	724.81
527.00	737.05
528.00	749.56
529.00	763.53
530.00	770.50
531.00	784.80
532.00	797.36
533.00	805.30
534.00	814.89
535.00	824.36
536.00	830.10
537.00	840.10
538.00	847.71
539.00	847.49
540.00	850.45
541.00	858.06
542.00	860.91
543.00	860.15
544.00	859.95
545.00	853.95
546.00	855.18
547.00	849.38
548.00	844.98
549.00	844.48
550.00	840.04
551.00	838.32
552.00	837.04
553.00	836.40
554.00	839.50
555.00	837.73
556.00	839.83
557.00	841.13
558.00	839.68
559.00	843.35
560.00	847.50
561.00	850.80
562.00	859.38
563.00	858.01
564.00	865.92
565.00	873.55
566.00	878.16
567.00	883.71
568.00	885.14
569.00	890.72
570.00	903.06
571.00	922.77
572.00	919.08
573.00	931.16
574.00	938.14
575.00	942.88
576.00	954.01
577.00	959.12
578.00	967.75
579.00	977.32
580.00	983.15
581.00	987.67
582.00	992.36
583.00	999.90
584.00	1005.72
585.00	1000.63
586.00	1004.70
587.00	1006.83
588.00	1005.18
589.00	1006.26
590.00	1002.81
591.00	1001.48
592.00	999.84
593.00	999.15
594.00	1001.06
595.00	995.40
596.00	992.91
597.00	989.54
598.00	986.99
599.00	987.96
600.00	987.31
601.00	982.68
602.00	977.90
603.00	982.44
604.00	981.27
605.00	977.94
606.00	981.23
607.00	982.03
608.00	981.45
609.00	981.58
610.00	979.73
611.00	993.79
612.00	994.37
613.00	992.95
614.00	993.60
615.00	996.81
616.00	998.50
617.00	1000.72
618.00	1002.83
619.00	1018.27
620.00	1011.13
621.00	1016.07
622.00	1018.72
623.00	1023.05
624.00	1029.02
625.00	1033.31
626.00	1035.62
627.00	1042.88
628.00	1048.30
629.00	1055.85
630.00	1056.16
631.00	1067.39
632.00	1064.38
633.00	1061.05
634.00	1069.62
635.00	1069.82
636.00	1074.51
637.00	1067.96
638.00	1073.52
639.00	1069.55
640.00	1076.47
641.00	1070.76
642.00	1062.76
643.00	1063.12
644.00	1058.54
645.00	1053.45
646.00	1048.64
647.00	1043.26
648.00	1037.64
649.00	1032.00
650.00	1025.48
651.00	1022.28
652.00	1013.89
653.00	1007.95
654.00	1001.98
655.00	994.35
656.00	986.88
657.00	982.94
658.00	979.31
659.00	971.77
660.00	968.29
661.00	960.79
662.00	958.56
663.00	959.40
664.00	954.32
665.00	941.46
666.00	941.82
667.00	937.72
668.00	934.92
669.00	927.00
670.00	927.66
671.00	925.57
672.00	921.42
673.00	920.59
674.00	917.34
675.00	911.92
676.00	918.48
677.00	913.29
678.00	914.16
679.00	911.99
680.00	909.59
681.00	910.19
682.00	912.42
683.00	905.53
684.00	913.09
685.00	911.58
686.00	903.62
687.00	906.96
688.00	907.56
689.00	910.64
690.00	911.84
691.00	913.14
692.00	912.37
693.00	911.34
694.00	916.33
695.00	919.58
696.00	918.34
697.00	923.73
698.00	918.94
699.00	920.66
700.00	917.86
701.00	921.01
702.00	920.05
703.00	918.32
704.00	914.94
705.00	919.70
706.00	909.77
707.00	907.60
708.00	908.12
709.00	908.75
710.00	903.08
711.00	897.72
712.00	896.68
713.00	886.79
714.00	880.68
715.00	876.44
716.00	867.86
717.00	861.87
718.00	852.16
719.00	845.41
720.00	835.92
721.00	826.52
722.00	814.55
723.00	806.85
724.00	799.79
725.00	804.29
726.00	784.33
727.00	775.31
728.00	772.91
729.00	768.26
730.00	763.23
731.00	758.06
732.00	753.85
733.00	750.17
734.00	741.93
735.00	741.61
736.00	731.97
737.00	725.91
738.00	728.69
739.00	716.65
740.00	718.91
741.00	713.47
742.00	702.09
743.00	701.16
744.00	695.11
745.00	694.87
746.00	682.63
747.00	682.22
748.00	676.25
749.00	670.82
750.00	664.71
751.00	666.07
752.00	657.19
753.00	660.20
754.00	654.53
755.00	650.87
756.00	645.05
757.00	644.34
758.00	643.08
759.00	645.64
760.00	636.47
761.00	635.90
762.00	632.59
763.00	627.39
764.00	619.31
765.00	618.44
766.00	617.65
767.00	616.16
768.00	610.39
769.00	610.52
770.00	606.17
771.00	604.83
772.00	603.17
773.00	601.22
774.00	596.70
775.00	594.91
776.00	588.23
777.00	589.60
778.00	581.84
779.00	584.60
780.00	578.29
781.00	577.79
782.00	577.02
783.00	578.16
784.00	577.87
785.00	579.46
786.00	581.13
787.00	583.01
788.00	585.98
789.00	589.11
790.00	587.62
791.00	588.52
792.00	591.15
793.00	593.72
794.00	594.09
795.00	595.74
796.00	594.91
797.00	594.32
798.00	598.13
799.00	595.82
800.00	595.77
801.00	592.69
802.00	593.07
803.00	591.25
804.00	585.55
805.00	584.16
806.00	584.01
807.00	581.31
808.00	579.95
809.00	575.40
810.00	570.85
811.00	566.79
812.00	562.68
813.00	560.03
814.00	554.00
815.00	550.47
816.00	546.16
817.00	542.18
818.00	536.93
819.00	531.68
820.00	526.02
821.00	521.65
822.00	518.84
823.00	514.60
824.00	507.92
825.00	508.16
826.00	500.00
827.00	495.48
828.00	490.40
829.00	487.84
830.00	481.14
831.00	477.89
832.00	473.58
833.00	470.67
834.00	464.16
835.00	463.87
836.00	458.47
837.00	453.93
838.00	450.28
839.00	446.61
840.00	443.39
841.00	438.87
842.00	437.38
843.00	433.56
844.00	429.99
845.00	426.13
846.00	422.87
847.00	418.41
848.00	415.99
849.00	412.82
850.00	411.62
851.00	408.21
852.00	405.00
853.00	403.57
854.00	399.36
855.00	395.88
856.00	397.13
857.00	392.04
858.00	390.09
859.00	386.85
860.00	383.78
861.00	385.39
862.00	379.70
863.00	376.55
864.00	375.37
865.00	372.82
866.00	369.40
867.00	369.18
868.00	366.46
869.00	362.48
870.00	359.88
871.00	357.78
872.00	357.04
873.00	354.02
874.00	349.07
875.00	348.14
876.00	346.01
877.00	344.43
878.00	341.34
879.00	339.35
880.00	338.34
881.00	337.67
882.00	335.85
883.00	332.98
884.00	332.02
885.00	330.99
886.00	328.33
887.00	327.87
888.00	325.67
889.00	324.76
890.00	324.58
891.00	324.61
892.00	323.11
893.00	321.51
894.00	320.07
895.00	322.59
896.00	319.95
897.00	319.14
898.00	319.19
899.00	319.07
900.00	319.44
901.00	319.62
902.00	318.93
903.00	322.39
904.00	319.03
905.00	318.52
906.00	321.79
907.00	319.90
908.00	318.87
909.00	318.07
910.00	317.90
911.00	317.84
912.00	317.59
913.00	316.57
914.00	315.98
915.00	314.90
916.00	314.54
917.00	313.75
918.00	311.41
919.00	310.95
920.00	308.76
921.00	309.07
922.00	305.32
923.00	303.85
924.00	301.92
925.00	300.71
926.00	297.63
927.00	295.76
928.00	291.98
929.00	291.14
930.00	289.24
931.00	286.15
932.00	283.40
933.00	281.97
934.00	278.09
935.00	274.38
936.00	270.99
937.00	267.55
938.00	263.28
939.00	257.99
940.00	253.15
941.00	249.44
942.00	247.48
943.00	243.54
944.00	241.49
945.00	243.59
946.00	239.31
947.00	239.44
948.00	238.40
949.00	238.99
950.00	239.45
951.00	239.38
952.00	239.17
953.00	240.10
954.00	239.14
955.00	241.22
956.00	240.40
957.00	240.37
958.00	240.46
959.00	240.58
960.00	240.15
961.00	239.36
962.00	239.91
963.00	239.59
964.00	239.37
965.00	238.31
966.00	238.01
967.00	238.49
968.00	237.76
969.00	236.69
970.00	236.20
971.00	236.11
972.00	235.59
973.00	236.86
974.00	235.02
975.00	233.27
976.00	234.36
977.00	232.03
978.00	232.34
979.00	231.60
980.00	230.52
981.00	229.78
982.00	230.07
983.00	230.92
984.00	228.57
985.00	229.22
986.00	227.90
987.00	227.46
988.00	227.83
989.00	226.72
990.00	225.31
991.00	225.93
992.00	224.98
993.00	225.36
994.00	224.58
995.00	223.66
996.00	223.47
997.00	223.77
998.00	223.13
999.00	223.21
1000.00	221.85
>>>>>End Processed Spectral Data<<<<<
