SpectraSuite Data File
++++++++++++++++++++++++++++++++++++
Date: Fri Jan 27 16:05:19 CST 2012
User: Helimak
Dark Spectrum Present: No
Reference Spectrum Present: No
Number of Sampled Component Spectra: 1
Spectrometers: USB2G37154
Integration Time (usec): 150000 (USB2G37154)
Spectra Averaged: 200 (USB2G37154)
Boxcar Smoothing: 0 (USB2G37154)
Correct for Electrical Dark: No (USB2G37154)
Strobe/Lamp Enabled: No (USB2G37154)
Correct for Detector Non-linearity: No (USB2G37154)
Correct for Stray Light: No (USB2G37154)
Number of Pixels in Processed Spectrum: 651
>>>>>Begin Processed Spectral Data<<<<<
350.00	213.66
351.00	214.74
352.00	213.79
353.00	214.07
354.00	214.76
355.00	215.39
356.00	215.10
357.00	214.29
358.00	216.33
359.00	214.76
360.00	215.39
361.00	214.55
362.00	217.09
363.00	215.21
364.00	216.64
365.00	215.48
366.00	215.59
367.00	215.30
368.00	215.44
369.00	215.83
370.00	216.37
371.00	215.61
372.00	216.48
373.00	216.82
374.00	217.23
375.00	219.00
376.00	216.33
377.00	216.99
378.00	218.95
379.00	216.87
380.00	216.91
381.00	217.27
382.00	217.79
383.00	218.81
384.00	217.38
385.00	217.96
386.00	217.77
387.00	218.09
388.00	217.36
389.00	217.76
390.00	218.00
391.00	218.75
392.00	218.22
393.00	218.69
394.00	219.46
395.00	218.71
396.00	219.18
397.00	219.55
398.00	219.61
399.00	220.28
400.00	220.22
401.00	220.38
402.00	222.10
403.00	222.78
404.00	223.85
405.00	225.32
406.00	225.62
407.00	227.85
408.00	229.27
409.00	231.55
410.00	233.04
411.00	235.34
412.00	238.10
413.00	241.03
414.00	243.29
415.00	246.76
416.00	249.49
417.00	253.19
418.00	256.22
419.00	259.30
420.00	262.82
421.00	266.07
422.00	270.84
423.00	274.84
424.00	278.83
425.00	283.31
426.00	287.37
427.00	294.12
428.00	294.62
429.00	297.86
430.00	300.03
431.00	301.91
432.00	307.51
433.00	306.09
434.00	305.26
435.00	310.35
436.00	309.41
437.00	313.02
438.00	308.07
439.00	311.39
440.00	311.80
441.00	313.47
442.00	313.41
443.00	315.10
444.00	318.44
445.00	319.98
446.00	324.22
447.00	326.90
448.00	330.97
449.00	335.32
450.00	339.64
451.00	346.08
452.00	350.65
453.00	358.14
454.00	361.01
455.00	366.56
456.00	374.52
457.00	377.24
458.00	379.39
459.00	382.12
460.00	384.20
461.00	384.40
462.00	388.60
463.00	386.14
464.00	384.73
465.00	387.90
466.00	389.26
467.00	385.57
468.00	387.31
469.00	388.64
470.00	389.85
471.00	392.46
472.00	396.52
473.00	399.94
474.00	404.99
475.00	409.00
476.00	415.93
477.00	423.36
478.00	430.17
479.00	438.38
480.00	446.67
481.00	455.85
482.00	465.94
483.00	475.88
484.00	489.96
485.00	502.16
486.00	515.16
487.00	526.91
488.00	539.20
489.00	554.54
490.00	563.47
491.00	574.69
492.00	586.37
493.00	595.69
494.00	602.89
495.00	607.05
496.00	611.63
497.00	616.66
498.00	618.30
499.00	620.05
500.00	620.68
501.00	620.09
502.00	619.81
503.00	621.19
504.00	621.78
505.00	619.66
506.00	623.14
507.00	623.54
508.00	623.41
509.00	623.48
510.00	624.49
511.00	630.91
512.00	630.83
513.00	634.83
514.00	637.49
515.00	642.06
516.00	646.14
517.00	650.92
518.00	660.47
519.00	667.77
520.00	675.07
521.00	681.59
522.00	689.91
523.00	700.31
524.00	710.25
525.00	719.55
526.00	730.36
527.00	742.65
528.00	755.52
529.00	770.61
530.00	777.22
531.00	790.93
532.00	804.25
533.00	811.45
534.00	821.61
535.00	832.16
536.00	838.32
537.00	848.13
538.00	853.73
539.00	853.68
540.00	856.34
541.00	864.38
542.00	868.41
543.00	867.68
544.00	866.88
545.00	860.48
546.00	863.03
547.00	856.12
548.00	850.44
549.00	851.23
550.00	845.84
551.00	844.46
552.00	843.28
553.00	844.10
554.00	845.66
555.00	844.40
556.00	846.84
557.00	846.79
558.00	846.24
559.00	849.83
560.00	852.75
561.00	856.99
562.00	866.92
563.00	864.43
564.00	872.49
565.00	880.62
566.00	885.68
567.00	890.80
568.00	893.50
569.00	899.05
570.00	911.18
571.00	929.20
572.00	927.07
573.00	937.45
574.00	945.06
575.00	950.00
576.00	962.74
577.00	965.81
578.00	975.38
579.00	984.98
580.00	991.61
581.00	995.26
582.00	1001.31
583.00	1009.83
584.00	1015.50
585.00	1008.25
586.00	1013.14
587.00	1014.27
588.00	1012.32
589.00	1014.46
590.00	1010.69
591.00	1009.20
592.00	1007.54
593.00	1006.99
594.00	1007.23
595.00	1004.04
596.00	1000.99
597.00	997.69
598.00	995.47
599.00	996.22
600.00	995.10
601.00	991.57
602.00	986.06
603.00	991.64
604.00	988.68
605.00	986.21
606.00	989.43
607.00	989.56
608.00	988.71
609.00	988.53
610.00	987.59
611.00	1002.83
612.00	1004.49
613.00	1002.25
614.00	1002.50
615.00	1006.22
616.00	1007.34
617.00	1008.47
618.00	1010.84
619.00	1027.36
620.00	1020.23
621.00	1024.17
622.00	1026.76
623.00	1031.28
624.00	1038.33
625.00	1042.05
626.00	1044.74
627.00	1051.93
628.00	1057.06
629.00	1064.14
630.00	1065.04
631.00	1076.76
632.00	1073.07
633.00	1070.49
634.00	1077.40
635.00	1079.16
636.00	1083.51
637.00	1077.32
638.00	1084.50
639.00	1078.92
640.00	1086.13
641.00	1078.88
642.00	1072.73
643.00	1072.30
644.00	1068.78
645.00	1062.14
646.00	1057.29
647.00	1052.04
648.00	1046.03
649.00	1041.14
650.00	1035.58
651.00	1032.67
652.00	1022.54
653.00	1016.20
654.00	1009.91
655.00	1003.46
656.00	996.43
657.00	991.45
658.00	988.91
659.00	981.16
660.00	977.05
661.00	969.05
662.00	965.66
663.00	967.45
664.00	961.03
665.00	949.20
666.00	948.61
667.00	944.60
668.00	942.81
669.00	934.85
670.00	936.55
671.00	933.78
672.00	928.03
673.00	927.05
674.00	924.34
675.00	919.55
676.00	924.74
677.00	920.26
678.00	921.66
679.00	919.04
680.00	917.23
681.00	918.13
682.00	919.44
683.00	913.79
684.00	920.47
685.00	919.12
686.00	911.66
687.00	913.64
688.00	916.92
689.00	918.42
690.00	918.63
691.00	919.56
692.00	918.26
693.00	920.32
694.00	924.39
695.00	925.73
696.00	926.33
697.00	930.83
698.00	928.64
699.00	928.98
700.00	925.54
701.00	928.97
702.00	927.67
703.00	925.69
704.00	923.09
705.00	927.53
706.00	915.73
707.00	914.61
708.00	915.54
709.00	916.11
710.00	911.06
711.00	906.11
712.00	904.43
713.00	892.21
714.00	888.72
715.00	884.24
716.00	875.01
717.00	867.82
718.00	857.94
719.00	852.08
720.00	843.52
721.00	832.77
722.00	821.85
723.00	814.77
724.00	806.95
725.00	811.84
726.00	791.03
727.00	779.89
728.00	781.14
729.00	773.51
730.00	768.74
731.00	764.17
732.00	759.58
733.00	756.65
734.00	746.60
735.00	747.50
736.00	737.49
737.00	731.74
738.00	733.76
739.00	722.85
740.00	723.80
741.00	718.84
742.00	707.24
743.00	706.48
744.00	701.13
745.00	699.30
746.00	686.97
747.00	686.46
748.00	679.97
749.00	675.75
750.00	668.40
751.00	670.19
752.00	661.73
753.00	665.57
754.00	659.39
755.00	655.40
756.00	649.67
757.00	649.70
758.00	648.87
759.00	650.24
760.00	639.86
761.00	640.42
762.00	637.45
763.00	632.45
764.00	624.41
765.00	622.52
766.00	622.09
767.00	620.23
768.00	614.51
769.00	615.04
770.00	609.87
771.00	609.03
772.00	606.96
773.00	605.32
774.00	602.16
775.00	599.62
776.00	592.32
777.00	592.89
778.00	585.28
779.00	589.17
780.00	582.20
781.00	582.41
782.00	582.13
783.00	582.09
784.00	581.06
785.00	583.62
786.00	585.15
787.00	587.22
788.00	589.67
789.00	594.47
790.00	591.61
791.00	593.76
792.00	594.54
793.00	598.40
794.00	597.85
795.00	598.92
796.00	597.62
797.00	598.88
798.00	601.84
799.00	600.45
800.00	599.26
801.00	596.90
802.00	596.62
803.00	594.92
804.00	590.23
805.00	589.12
806.00	588.02
807.00	584.84
808.00	583.20
809.00	578.94
810.00	573.73
811.00	570.62
812.00	566.91
813.00	563.97
814.00	557.14
815.00	553.88
816.00	549.28
817.00	545.56
818.00	539.69
819.00	535.78
820.00	529.83
821.00	524.94
822.00	523.04
823.00	518.09
824.00	510.97
825.00	512.07
826.00	504.05
827.00	498.64
828.00	493.37
829.00	491.47
830.00	484.11
831.00	479.96
832.00	476.50
833.00	472.48
834.00	467.21
835.00	466.37
836.00	460.65
837.00	456.43
838.00	452.83
839.00	449.89
840.00	444.13
841.00	441.67
842.00	438.96
843.00	435.93
844.00	432.24
845.00	429.27
846.00	425.35
847.00	420.21
848.00	418.24
849.00	414.86
850.00	413.91
851.00	410.39
852.00	407.53
853.00	405.92
854.00	400.69
855.00	397.84
856.00	399.08
857.00	394.36
858.00	391.27
859.00	388.56
860.00	385.05
861.00	386.84
862.00	380.84
863.00	378.00
864.00	376.85
865.00	374.33
866.00	370.80
867.00	370.61
868.00	368.04
869.00	363.95
870.00	361.06
871.00	359.39
872.00	357.54
873.00	355.42
874.00	351.26
875.00	349.82
876.00	347.77
877.00	345.77
878.00	341.92
879.00	340.65
880.00	338.99
881.00	338.40
882.00	336.68
883.00	333.90
884.00	333.39
885.00	332.05
886.00	329.75
887.00	329.07
888.00	327.02
889.00	326.27
890.00	325.25
891.00	325.66
892.00	323.98
893.00	322.46
894.00	321.22
895.00	324.30
896.00	321.38
897.00	320.59
898.00	320.90
899.00	319.78
900.00	320.78
901.00	320.63
902.00	320.14
903.00	323.90
904.00	320.20
905.00	319.56
906.00	323.28
907.00	320.43
908.00	319.70
909.00	318.48
910.00	319.14
911.00	318.57
912.00	318.75
913.00	317.34
914.00	317.45
915.00	315.38
916.00	315.52
917.00	314.85
918.00	312.42
919.00	312.73
920.00	309.37
921.00	309.60
922.00	305.93
923.00	305.62
924.00	303.43
925.00	301.15
926.00	298.44
927.00	296.34
928.00	292.87
929.00	291.78
930.00	289.75
931.00	286.40
932.00	284.33
933.00	282.32
934.00	278.96
935.00	275.63
936.00	271.69
937.00	267.42
938.00	263.63
939.00	258.69
940.00	253.25
941.00	249.86
942.00	247.69
943.00	244.15
944.00	241.55
945.00	243.61
946.00	239.55
947.00	239.34
948.00	239.09
949.00	239.15
950.00	239.19
951.00	239.98
952.00	239.20
953.00	240.34
954.00	239.05
955.00	241.62
956.00	240.86
957.00	240.88
958.00	241.32
959.00	240.57
960.00	240.38
961.00	239.77
962.00	239.53
963.00	239.58
964.00	239.39
965.00	238.76
966.00	237.64
967.00	238.74
968.00	237.94
969.00	237.04
970.00	236.40
971.00	236.43
972.00	235.49
973.00	236.53
974.00	235.19
975.00	233.40
976.00	234.17
977.00	231.94
978.00	232.17
979.00	231.73
980.00	230.28
981.00	229.93
982.00	230.36
983.00	231.16
984.00	228.91
985.00	229.34
986.00	227.88
987.00	227.56
988.00	228.08
989.00	226.62
990.00	225.58
991.00	225.90
992.00	225.14
993.00	225.53
994.00	224.31
995.00	224.07
996.00	223.89
997.00	223.68
998.00	222.64
999.00	223.08
1000.00	221.72
>>>>>End Processed Spectral Data<<<<<
