SpectraSuite Data File
++++++++++++++++++++++++++++++++++++
Date: Sun May 20 11:33:06 CDT 2012
User: Helimak
Dark Spectrum Present: No
Reference Spectrum Present: No
Number of Sampled Component Spectra: 1
Spectrometers: USB2G37154
Integration Time (usec): 100000 (USB2G37154)
Spectra Averaged: 1 (USB2G37154)
Boxcar Smoothing: 0 (USB2G37154)
Correct for Electrical Dark: No (USB2G37154)
Strobe/Lamp Enabled: No (USB2G37154)
Correct for Detector Non-linearity: No (USB2G37154)
Correct for Stray Light: No (USB2G37154)
Number of Pixels in Processed Spectrum: 651
>>>>>Begin Processed Spectral Data<<<<<
350.00	212.25
351.00	211.23
352.00	207.93
353.00	210.77
354.00	208.47
355.00	207.32
356.00	207.03
357.00	209.65
358.00	209.83
359.00	212.42
360.00	211.23
361.00	209.09
362.00	209.22
363.00	212.37
364.00	217.49
365.00	219.97
366.00	213.87
367.00	207.95
368.00	212.12
369.00	214.35
370.00	211.98
371.00	209.60
372.00	214.33
373.00	211.64
374.00	212.06
375.00	213.14
376.00	211.86
377.00	213.51
378.00	213.47
379.00	213.12
380.00	212.09
381.00	213.49
382.00	216.72
383.00	212.12
384.00	213.96
385.00	214.59
386.00	211.00
387.00	212.44
388.00	212.71
389.00	212.04
390.00	216.14
391.00	210.16
392.00	211.67
393.00	218.17
394.00	214.99
395.00	215.50
396.00	215.00
397.00	214.14
398.00	215.40
399.00	212.29
400.00	215.12
401.00	221.59
402.00	219.56
403.00	362.81
404.00	372.44
405.00	341.92
406.00	236.00
407.00	245.52
408.00	240.77
409.00	224.95
410.00	227.28
411.00	235.97
412.00	238.54
413.00	238.90
414.00	243.80
415.00	254.59
416.00	259.11
417.00	264.42
418.00	262.32
419.00	273.62
420.00	281.83
421.00	284.63
422.00	294.25
423.00	301.52
424.00	318.22
425.00	326.96
426.00	336.49
427.00	353.87
428.00	366.38
429.00	379.08
430.00	392.44
431.00	402.84
432.00	431.63
433.00	442.11
434.00	628.11
435.00	2443.48
436.00	1838.60
437.00	1376.49
438.00	497.33
439.00	489.36
440.00	479.19
441.00	482.56
442.00	485.88
443.00	489.84
444.00	502.07
445.00	508.00
446.00	510.29
447.00	523.63
448.00	540.00
449.00	542.84
450.00	554.16
451.00	570.46
452.00	577.87
453.00	595.81
454.00	593.64
455.00	599.74
456.00	605.62
457.00	614.55
458.00	606.48
459.00	602.39
460.00	599.46
461.00	600.13
462.00	602.06
463.00	578.84
464.00	553.86
465.00	545.96
466.00	537.54
467.00	528.01
468.00	515.18
469.00	516.24
470.00	503.58
471.00	503.53
472.00	502.59
473.00	487.22
474.00	480.56
475.00	475.41
476.00	475.17
477.00	464.52
478.00	471.30
479.00	465.81
480.00	488.47
481.00	505.05
482.00	557.62
483.00	639.15
484.00	746.86
485.00	914.82
486.00	1054.87
487.00	1111.75
488.00	1066.48
489.00	989.37
490.00	904.47
491.00	892.35
492.00	853.82
493.00	800.49
494.00	727.22
495.00	704.34
496.00	664.08
497.00	627.88
498.00	583.41
499.00	545.32
500.00	521.89
501.00	501.79
502.00	466.01
503.00	458.50
504.00	455.18
505.00	451.22
506.00	455.57
507.00	454.00
508.00	449.14
509.00	462.14
510.00	468.78
511.00	478.02
512.00	467.90
513.00	468.61
514.00	463.11
515.00	467.71
516.00	466.71
517.00	452.84
518.00	447.45
519.00	445.30
520.00	438.62
521.00	441.32
522.00	424.06
523.00	411.81
524.00	405.54
525.00	397.43
526.00	395.47
527.00	399.00
528.00	393.09
529.00	390.11
530.00	372.22
531.00	379.43
532.00	384.21
533.00	414.63
534.00	418.36
535.00	429.16
536.00	460.69
537.00	567.00
538.00	726.98
539.00	948.57
540.00	1559.12
541.00	2946.31
542.00	3714.42
543.00	3264.01
544.00	2947.44
545.00	3284.86
546.00	4094.59
547.00	3541.29
548.00	2286.50
549.00	1736.73
550.00	1324.59
551.00	1035.23
552.00	818.16
553.00	668.92
554.00	546.91
555.00	454.38
556.00	392.41
557.00	363.54
558.00	334.05
559.00	314.26
560.00	304.87
561.00	297.38
562.00	291.23
563.00	283.25
564.00	282.17
565.00	273.92
566.00	266.61
567.00	265.85
568.00	262.80
569.00	258.25
570.00	262.56
571.00	255.50
572.00	256.80
573.00	253.42
574.00	255.83
575.00	263.67
576.00	325.81
577.00	645.17
578.00	515.51
579.00	669.14
580.00	632.47
581.00	568.25
582.00	592.26
583.00	698.74
584.00	777.48
585.00	721.70
586.00	677.79
587.00	837.37
588.00	859.47
589.00	634.34
590.00	508.74
591.00	504.25
592.00	564.88
593.00	727.30
594.00	670.80
595.00	490.85
596.00	402.78
597.00	387.79
598.00	400.53
599.00	474.56
600.00	522.99
601.00	456.92
602.00	367.51
603.00	332.28
604.00	327.17
605.00	332.13
606.00	346.39
607.00	369.71
608.00	429.21
609.00	556.41
610.00	1023.27
611.00	3211.40
612.00	4059.10
613.00	2657.73
614.00	1670.31
615.00	1360.80
616.00	975.58
617.00	686.51
618.00	531.88
619.00	489.80
620.00	487.27
621.00	520.37
622.00	526.81
623.00	540.75
624.00	559.20
625.00	581.09
626.00	577.83
627.00	563.87
628.00	531.74
629.00	493.27
630.00	523.62
631.00	710.15
632.00	657.23
633.00	434.93
634.00	312.02
635.00	286.89
636.00	276.70
637.00	267.21
638.00	258.30
639.00	260.68
640.00	257.70
641.00	259.21
642.00	255.39
643.00	255.66
644.00	254.99
645.00	262.35
646.00	255.98
647.00	257.29
648.00	255.00
649.00	253.94
650.00	288.47
651.00	348.21
652.00	309.98
653.00	287.07
654.00	277.94
655.00	269.94
656.00	259.40
657.00	255.79
658.00	264.01
659.00	262.18
660.00	247.10
661.00	242.67
662.00	249.39
663.00	286.29
664.00	273.84
665.00	257.02
666.00	245.30
667.00	240.28
668.00	241.28
669.00	240.64
670.00	236.71
671.00	236.06
672.00	236.00
673.00	237.03
674.00	232.09
675.00	231.81
676.00	235.82
677.00	229.33
678.00	231.22
679.00	231.80
680.00	230.42
681.00	236.52
682.00	237.74
683.00	233.52
684.00	236.54
685.00	236.16
686.00	239.48
687.00	246.89
688.00	275.78
689.00	268.49
690.00	246.34
691.00	230.77
692.00	223.45
693.00	223.05
694.00	248.82
695.00	248.75
696.00	240.00
697.00	277.49
698.00	250.51
699.00	225.64
700.00	219.02
701.00	218.50
702.00	218.61
703.00	222.57
704.00	228.81
705.00	233.81
706.00	250.59
707.00	327.49
708.00	374.61
709.00	341.26
710.00	355.85
711.00	292.91
712.00	279.04
713.00	320.62
714.00	292.56
715.00	247.92
716.00	225.70
717.00	217.48
718.00	215.21
719.00	216.27
720.00	212.91
721.00	214.52
722.00	214.25
723.00	215.09
724.00	216.90
725.00	217.56
726.00	211.59
727.00	217.91
728.00	224.70
729.00	223.08
730.00	217.30
731.00	215.58
732.00	210.90
733.00	211.05
734.00	211.27
735.00	213.70
736.00	214.79
737.00	209.25
738.00	223.74
739.00	264.82
740.00	246.56
741.00	227.13
742.00	214.05
743.00	215.06
744.00	216.13
745.00	217.38
746.00	212.36
747.00	213.24
748.00	217.28
749.00	213.74
750.00	215.49
751.00	253.70
752.00	281.41
753.00	260.12
754.00	228.83
755.00	211.67
756.00	214.53
757.00	211.11
758.00	211.52
759.00	212.53
760.00	217.16
761.00	212.12
762.00	215.54
763.00	223.32
764.00	340.39
765.00	349.66
766.00	274.68
767.00	224.79
768.00	213.81
769.00	212.67
770.00	213.42
771.00	213.61
772.00	215.06
773.00	261.39
774.00	258.12
775.00	231.69
776.00	216.74
777.00	208.52
778.00	214.00
779.00	213.01
780.00	206.69
781.00	210.47
782.00	213.60
783.00	211.57
784.00	209.45
785.00	217.67
786.00	210.95
787.00	209.10
788.00	210.36
789.00	218.00
790.00	210.88
791.00	210.71
792.00	208.49
793.00	210.65
794.00	212.71
795.00	232.31
796.00	268.23
797.00	233.11
798.00	230.38
799.00	214.90
800.00	209.21
801.00	230.91
802.00	293.40
803.00	286.75
804.00	242.73
805.00	221.84
806.00	217.98
807.00	209.01
808.00	213.48
809.00	213.60
810.00	216.37
811.00	267.80
812.00	399.78
813.00	442.90
814.00	311.98
815.00	252.11
816.00	208.90
817.00	215.81
818.00	210.09
819.00	211.98
820.00	210.23
821.00	214.02
822.00	214.10
823.00	212.26
824.00	212.90
825.00	219.28
826.00	210.97
827.00	236.18
828.00	237.03
829.00	224.65
830.00	219.95
831.00	209.92
832.00	210.86
833.00	212.09
834.00	209.90
835.00	210.10
836.00	210.32
837.00	211.50
838.00	209.84
839.00	207.94
840.00	214.01
841.00	224.49
842.00	262.46
843.00	280.53
844.00	276.18
845.00	243.97
846.00	225.87
847.00	211.64
848.00	210.08
849.00	208.01
850.00	206.37
851.00	210.56
852.00	215.94
853.00	227.59
854.00	219.43
855.00	219.15
856.00	221.09
857.00	209.25
858.00	215.75
859.00	208.26
860.00	209.38
861.00	209.78
862.00	206.09
863.00	208.78
864.00	212.16
865.00	212.01
866.00	210.99
867.00	212.53
868.00	217.01
869.00	212.28
870.00	208.63
871.00	209.76
872.00	210.17
873.00	213.30
874.00	211.74
875.00	214.76
876.00	212.15
877.00	211.25
878.00	209.98
879.00	206.10
880.00	208.90
881.00	207.74
882.00	209.88
883.00	210.09
884.00	209.00
885.00	211.19
886.00	214.88
887.00	210.65
888.00	212.81
889.00	206.97
890.00	212.45
891.00	205.86
892.00	211.79
893.00	207.70
894.00	209.87
895.00	213.81
896.00	211.53
897.00	209.98
898.00	210.18
899.00	208.66
900.00	210.00
901.00	209.09
902.00	205.04
903.00	210.98
904.00	215.71
905.00	208.00
906.00	212.18
907.00	211.50
908.00	210.25
909.00	207.41
910.00	210.94
911.00	214.76
912.00	211.46
913.00	233.53
914.00	237.99
915.00	233.43
916.00	222.34
917.00	214.92
918.00	212.06
919.00	208.67
920.00	206.82
921.00	213.89
922.00	210.35
923.00	215.07
924.00	218.76
925.00	217.04
926.00	217.01
927.00	215.20
928.00	212.01
929.00	210.17
930.00	209.56
931.00	204.75
932.00	211.44
933.00	209.73
934.00	213.00
935.00	208.43
936.00	208.46
937.00	210.05
938.00	209.37
939.00	211.92
940.00	211.41
941.00	209.42
942.00	210.97
943.00	212.10
944.00	209.97
945.00	211.26
946.00	206.40
947.00	210.04
948.00	210.37
949.00	207.19
950.00	211.22
951.00	208.80
952.00	210.98
953.00	215.05
954.00	207.53
955.00	215.87
956.00	209.99
957.00	211.48
958.00	206.46
959.00	209.00
960.00	210.67
961.00	207.46
962.00	203.97
963.00	208.02
964.00	211.05
965.00	210.29
966.00	210.54
967.00	211.73
968.00	214.98
969.00	212.78
970.00	209.06
971.00	212.08
972.00	211.06
973.00	212.08
974.00	211.46
975.00	210.52
976.00	212.07
977.00	205.94
978.00	208.04
979.00	210.84
980.00	206.56
981.00	209.78
982.00	213.13
983.00	208.51
984.00	210.64
985.00	213.54
986.00	207.84
987.00	207.50
988.00	212.33
989.00	208.63
990.00	211.83
991.00	207.40
992.00	211.56
993.00	210.38
994.00	207.04
995.00	211.58
996.00	209.22
997.00	211.16
998.00	208.67
999.00	208.12
1000.00	214.75
>>>>>End Processed Spectral Data<<<<<
