SpectraSuite Data File
++++++++++++++++++++++++++++++++++++
Date: Sun May 20 11:35:08 CDT 2012
User: Helimak
Dark Spectrum Present: No
Reference Spectrum Present: No
Number of Sampled Component Spectra: 1
Spectrometers: USB2G37154
Integration Time (usec): 100000 (USB2G37154)
Spectra Averaged: 1 (USB2G37154)
Boxcar Smoothing: 0 (USB2G37154)
Correct for Electrical Dark: No (USB2G37154)
Strobe/Lamp Enabled: No (USB2G37154)
Correct for Detector Non-linearity: No (USB2G37154)
Correct for Stray Light: No (USB2G37154)
Number of Pixels in Processed Spectrum: 651
>>>>>Begin Processed Spectral Data<<<<<
350.00	207.21
351.00	205.64
352.00	213.03
353.00	208.84
354.00	211.74
355.00	209.70
356.00	207.35
357.00	210.86
358.00	211.73
359.00	210.02
360.00	207.99
361.00	213.90
362.00	211.12
363.00	213.71
364.00	217.07
365.00	216.25
366.00	211.58
367.00	210.17
368.00	208.54
369.00	211.96
370.00	214.09
371.00	210.86
372.00	210.40
373.00	209.20
374.00	208.67
375.00	210.05
376.00	210.04
377.00	206.02
378.00	218.42
379.00	211.66
380.00	211.61
381.00	210.75
382.00	210.89
383.00	212.50
384.00	211.74
385.00	207.97
386.00	210.89
387.00	211.60
388.00	212.17
389.00	209.54
390.00	214.91
391.00	210.70
392.00	217.55
393.00	215.12
394.00	213.15
395.00	213.47
396.00	214.04
397.00	212.93
398.00	215.31
399.00	212.06
400.00	213.29
401.00	215.33
402.00	219.24
403.00	321.57
404.00	417.23
405.00	344.72
406.00	226.01
407.00	242.89
408.00	235.80
409.00	227.75
410.00	229.08
411.00	231.19
412.00	230.43
413.00	236.83
414.00	241.39
415.00	245.65
416.00	253.18
417.00	250.00
418.00	258.81
419.00	262.54
420.00	263.86
421.00	265.38
422.00	279.58
423.00	287.18
424.00	305.96
425.00	308.46
426.00	315.78
427.00	329.81
428.00	339.30
429.00	352.37
430.00	364.99
431.00	378.25
432.00	393.02
433.00	406.09
434.00	535.84
435.00	2653.45
436.00	1677.12
437.00	908.72
438.00	430.01
439.00	419.35
440.00	429.12
441.00	434.19
442.00	429.31
443.00	440.32
444.00	448.88
445.00	458.77
446.00	449.75
447.00	469.98
448.00	474.55
449.00	482.04
450.00	483.04
451.00	500.65
452.00	507.52
453.00	524.76
454.00	516.52
455.00	527.21
456.00	530.81
457.00	537.14
458.00	538.03
459.00	526.06
460.00	534.93
461.00	521.09
462.00	524.05
463.00	497.08
464.00	491.92
465.00	487.37
466.00	477.69
467.00	463.51
468.00	456.13
469.00	449.49
470.00	448.42
471.00	444.12
472.00	437.26
473.00	430.33
474.00	430.30
475.00	418.20
476.00	416.80
477.00	419.88
478.00	418.11
479.00	415.86
480.00	425.81
481.00	444.51
482.00	491.06
483.00	547.13
484.00	647.27
485.00	757.70
486.00	853.88
487.00	882.22
488.00	851.04
489.00	781.29
490.00	717.74
491.00	721.17
492.00	678.06
493.00	646.66
494.00	609.91
495.00	573.44
496.00	552.96
497.00	517.53
498.00	498.58
499.00	465.16
500.00	444.05
501.00	417.42
502.00	414.01
503.00	392.74
504.00	394.11
505.00	393.35
506.00	391.09
507.00	396.06
508.00	392.98
509.00	404.18
510.00	410.32
511.00	414.03
512.00	405.82
513.00	409.51
514.00	410.27
515.00	404.34
516.00	401.65
517.00	397.68
518.00	396.91
519.00	386.02
520.00	375.22
521.00	379.21
522.00	370.93
523.00	370.49
524.00	355.54
525.00	354.04
526.00	343.59
527.00	347.20
528.00	348.30
529.00	343.08
530.00	333.80
531.00	330.68
532.00	338.55
533.00	364.29
534.00	362.13
535.00	362.27
536.00	394.35
537.00	496.23
538.00	604.45
539.00	773.20
540.00	1270.17
541.00	2469.44
542.00	2782.27
543.00	2338.12
544.00	2176.46
545.00	2582.88
546.00	4029.33
547.00	2392.79
548.00	1561.66
549.00	1203.86
550.00	957.27
551.00	746.50
552.00	611.62
553.00	516.00
554.00	431.07
555.00	366.98
556.00	327.24
557.00	307.19
558.00	291.04
559.00	281.41
560.00	271.26
561.00	263.26
562.00	264.15
563.00	261.47
564.00	254.00
565.00	247.25
566.00	243.91
567.00	248.74
568.00	240.89
569.00	249.16
570.00	240.17
571.00	244.97
572.00	239.84
573.00	242.71
574.00	245.90
575.00	244.58
576.00	313.56
577.00	587.39
578.00	407.63
579.00	601.94
580.00	492.89
581.00	441.58
582.00	466.17
583.00	563.86
584.00	600.95
585.00	564.92
586.00	524.18
587.00	668.53
588.00	604.16
589.00	459.32
590.00	401.85
591.00	412.38
592.00	453.19
593.00	553.01
594.00	464.85
595.00	366.40
596.00	322.45
597.00	318.49
598.00	320.51
599.00	383.78
600.00	400.64
601.00	345.40
602.00	304.35
603.00	285.01
604.00	281.82
605.00	288.34
606.00	292.04
607.00	310.91
608.00	345.29
609.00	437.86
610.00	768.77
611.00	2506.92
612.00	2489.04
613.00	1456.38
614.00	1035.54
615.00	864.04
616.00	614.05
617.00	473.24
618.00	397.91
619.00	391.72
620.00	398.54
621.00	421.89
622.00	410.54
623.00	421.93
624.00	435.66
625.00	428.40
626.00	437.10
627.00	433.86
628.00	400.08
629.00	385.98
630.00	409.66
631.00	547.31
632.00	454.71
633.00	327.31
634.00	271.40
635.00	254.01
636.00	252.04
637.00	245.52
638.00	242.42
639.00	239.00
640.00	243.53
641.00	237.19
642.00	236.01
643.00	238.30
644.00	236.06
645.00	240.91
646.00	242.00
647.00	238.30
648.00	240.11
649.00	239.48
650.00	266.82
651.00	300.03
652.00	267.01
653.00	255.60
654.00	251.33
655.00	241.66
656.00	237.71
657.00	242.14
658.00	247.00
659.00	235.28
660.00	231.05
661.00	225.73
662.00	239.74
663.00	261.36
664.00	247.50
665.00	232.11
666.00	227.80
667.00	231.34
668.00	230.73
669.00	227.65
670.00	227.32
671.00	224.66
672.00	227.15
673.00	225.95
674.00	223.02
675.00	224.22
676.00	222.55
677.00	225.76
678.00	224.45
679.00	229.48
680.00	223.38
681.00	228.10
682.00	233.44
683.00	227.52
684.00	229.81
685.00	226.55
686.00	224.78
687.00	233.65
688.00	251.64
689.00	239.64
690.00	226.81
691.00	221.83
692.00	221.35
693.00	221.90
694.00	234.41
695.00	228.77
696.00	221.00
697.00	242.94
698.00	220.01
699.00	219.58
700.00	213.61
701.00	215.13
702.00	213.16
703.00	217.19
704.00	217.70
705.00	228.35
706.00	237.42
707.00	285.79
708.00	290.36
709.00	283.77
710.00	294.73
711.00	244.87
712.00	253.49
713.00	283.35
714.00	249.30
715.00	223.95
716.00	214.26
717.00	215.53
718.00	208.99
719.00	208.99
720.00	215.05
721.00	210.05
722.00	212.49
723.00	214.39
724.00	212.91
725.00	220.90
726.00	207.39
727.00	210.84
728.00	214.69
729.00	211.46
730.00	211.95
731.00	214.23
732.00	209.60
733.00	211.11
734.00	208.67
735.00	214.41
736.00	211.83
737.00	210.71
738.00	209.87
739.00	236.69
740.00	220.30
741.00	209.29
742.00	210.04
743.00	210.00
744.00	212.35
745.00	217.39
746.00	210.01
747.00	213.59
748.00	209.86
749.00	208.14
750.00	211.26
751.00	231.44
752.00	241.50
753.00	222.04
754.00	214.53
755.00	215.15
756.00	208.79
757.00	213.33
758.00	217.97
759.00	211.46
760.00	210.87
761.00	216.10
762.00	212.98
763.00	215.38
764.00	277.76
765.00	246.19
766.00	222.67
767.00	211.32
768.00	209.24
769.00	208.66
770.00	213.80
771.00	208.22
772.00	207.46
773.00	231.89
774.00	220.55
775.00	216.36
776.00	214.96
777.00	205.86
778.00	209.99
779.00	210.98
780.00	210.95
781.00	208.06
782.00	208.38
783.00	210.38
784.00	208.00
785.00	211.81
786.00	209.44
787.00	207.19
788.00	210.44
789.00	211.01
790.00	209.95
791.00	208.46
792.00	208.20
793.00	208.79
794.00	209.10
795.00	220.09
796.00	225.86
797.00	215.04
798.00	214.14
799.00	208.05
800.00	209.65
801.00	219.34
802.00	247.37
803.00	230.25
804.00	212.91
805.00	208.51
806.00	210.81
807.00	210.88
808.00	206.89
809.00	208.01
810.00	207.82
811.00	240.33
812.00	301.81
813.00	285.25
814.00	233.31
815.00	215.79
816.00	208.46
817.00	214.01
818.00	204.23
819.00	211.52
820.00	206.13
821.00	211.02
822.00	213.77
823.00	210.78
824.00	208.49
825.00	216.53
826.00	212.90
827.00	219.77
828.00	217.01
829.00	216.50
830.00	214.68
831.00	212.61
832.00	208.70
833.00	208.93
834.00	210.13
835.00	208.11
836.00	209.66
837.00	207.90
838.00	208.25
839.00	209.99
840.00	208.26
841.00	218.74
842.00	223.69
843.00	241.90
844.00	229.77
845.00	215.89
846.00	212.29
847.00	211.34
848.00	210.41
849.00	208.47
850.00	209.15
851.00	209.14
852.00	212.76
853.00	216.32
854.00	210.75
855.00	214.44
856.00	215.50
857.00	211.75
858.00	208.75
859.00	212.08
860.00	208.10
861.00	211.14
862.00	210.20
863.00	207.58
864.00	212.24
865.00	203.99
866.00	207.72
867.00	209.37
868.00	212.96
869.00	211.69
870.00	207.42
871.00	209.56
872.00	207.90
873.00	206.77
874.00	208.22
875.00	213.56
876.00	211.36
877.00	211.42
878.00	205.09
879.00	209.92
880.00	209.86
881.00	210.53
882.00	207.64
883.00	210.26
884.00	207.00
885.00	208.59
886.00	210.76
887.00	214.01
888.00	212.10
889.00	212.19
890.00	208.88
891.00	207.99
892.00	213.76
893.00	211.52
894.00	213.59
895.00	208.90
896.00	209.66
897.00	209.39
898.00	208.06
899.00	208.71
900.00	207.72
901.00	212.55
902.00	207.70
903.00	214.30
904.00	207.20
905.00	208.01
906.00	215.24
907.00	211.34
908.00	209.08
909.00	210.66
910.00	210.75
911.00	212.65
912.00	212.30
913.00	218.76
914.00	219.08
915.00	214.17
916.00	214.72
917.00	210.79
918.00	208.74
919.00	208.94
920.00	211.05
921.00	212.55
922.00	208.90
923.00	208.83
924.00	210.67
925.00	213.18
926.00	212.00
927.00	209.19
928.00	204.60
929.00	209.84
930.00	209.71
931.00	209.39
932.00	209.36
933.00	210.71
934.00	209.37
935.00	208.83
936.00	210.15
937.00	207.86
938.00	206.94
939.00	209.33
940.00	210.60
941.00	210.08
942.00	210.84
943.00	210.36
944.00	207.51
945.00	215.78
946.00	208.46
947.00	208.04
948.00	208.63
949.00	205.31
950.00	209.83
951.00	206.98
952.00	209.04
953.00	211.91
954.00	204.64
955.00	207.74
956.00	207.66
957.00	210.93
958.00	209.30
959.00	209.92
960.00	208.26
961.00	209.97
962.00	210.91
963.00	205.81
964.00	212.34
965.00	206.40
966.00	206.90
967.00	211.75
968.00	213.00
969.00	209.33
970.00	211.69
971.00	212.73
972.00	209.75
973.00	212.92
974.00	209.05
975.00	207.23
976.00	208.57
977.00	210.49
978.00	212.20
979.00	207.85
980.00	210.40
981.00	207.93
982.00	208.18
983.00	212.29
984.00	210.04
985.00	209.80
986.00	210.75
987.00	205.76
988.00	211.25
989.00	210.59
990.00	209.88
991.00	209.78
992.00	210.38
993.00	208.90
994.00	207.35
995.00	209.25
996.00	205.84
997.00	211.16
998.00	210.00
999.00	209.58
1000.00	209.97
>>>>>End Processed Spectral Data<<<<<
