SpectraSuite Data File
++++++++++++++++++++++++++++++++++++
Date: Thu Oct 13 11:19:58 CDT 2011
User: Helimak
Dark Spectrum Present: No
Reference Spectrum Present: No
Number of Sampled Component Spectra: 1
Spectrometers: USB2G37154
Integration Time (usec): 20000 (USB2G37154)
Spectra Averaged: 1 (USB2G37154)
Boxcar Smoothing: 0 (USB2G37154)
Correct for Electrical Dark: No (USB2G37154)
Strobe/Lamp Enabled: No (USB2G37154)
Correct for Detector Non-linearity: No (USB2G37154)
Correct for Stray Light: No (USB2G37154)
Number of Pixels in Processed Spectrum: 651
>>>>>Begin Processed Spectral Data<<<<<
350.00	204.80
351.00	206.61
352.00	203.81
353.00	203.56
354.00	204.07
355.00	205.40
356.00	208.46
357.00	206.99
358.00	206.01
359.00	207.11
360.00	209.27
361.00	202.27
362.00	199.45
363.00	208.86
364.00	210.30
365.00	205.96
366.00	206.74
367.00	202.92
368.00	206.31
369.00	210.52
370.00	208.01
371.00	208.76
372.00	208.10
373.00	207.02
374.00	209.25
375.00	207.32
376.00	207.40
377.00	211.11
378.00	210.42
379.00	210.08
380.00	208.76
381.00	212.15
382.00	216.25
383.00	210.79
384.00	207.18
385.00	214.01
386.00	210.98
387.00	213.01
388.00	208.24
389.00	210.91
390.00	214.78
391.00	214.96
392.00	219.79
393.00	215.95
394.00	219.01
395.00	215.02
396.00	218.02
397.00	221.04
398.00	220.63
399.00	223.32
400.00	219.27
401.00	225.34
402.00	228.36
403.00	223.30
404.00	227.49
405.00	233.73
406.00	232.00
407.00	234.96
408.00	237.29
409.00	231.07
410.00	233.83
411.00	235.06
412.00	235.01
413.00	241.01
414.00	236.56
415.00	239.96
416.00	245.23
417.00	241.82
418.00	246.89
419.00	245.27
420.00	249.91
421.00	248.90
422.00	252.44
423.00	255.04
424.00	256.59
425.00	257.68
426.00	268.69
427.00	272.05
428.00	273.77
429.00	274.70
430.00	273.65
431.00	276.22
432.00	280.66
433.00	281.60
434.00	283.96
435.00	275.48
436.00	280.10
437.00	286.85
438.00	276.22
439.00	285.81
440.00	284.56
441.00	289.64
442.00	291.91
443.00	289.73
444.00	290.31
445.00	295.84
446.00	297.64
447.00	306.26
448.00	309.79
449.00	317.86
450.00	317.87
451.00	318.32
452.00	327.96
453.00	330.28
454.00	338.83
455.00	342.50
456.00	350.47
457.00	353.87
458.00	357.88
459.00	359.71
460.00	364.54
461.00	369.67
462.00	368.06
463.00	366.68
464.00	373.71
465.00	365.50
466.00	377.96
467.00	379.85
468.00	377.72
469.00	377.40
470.00	369.90
471.00	375.51
472.00	388.24
473.00	399.82
474.00	395.62
475.00	402.41
476.00	409.65
477.00	417.16
478.00	427.16
479.00	434.90
480.00	451.24
481.00	450.69
482.00	474.33
483.00	476.23
484.00	487.39
485.00	509.43
486.00	528.29
487.00	532.69
488.00	562.53
489.00	569.66
490.00	573.49
491.00	601.83
492.00	614.45
493.00	627.75
494.00	636.94
495.00	632.18
496.00	647.56
497.00	656.38
498.00	658.32
499.00	664.61
500.00	673.68
501.00	663.95
502.00	668.00
503.00	669.33
504.00	668.57
505.00	673.72
506.00	691.37
507.00	682.18
508.00	691.26
509.00	694.36
510.00	691.07
511.00	715.11
512.00	709.12
513.00	714.79
514.00	726.88
515.00	727.35
516.00	738.57
517.00	738.98
518.00	763.79
519.00	776.88
520.00	770.90
521.00	792.40
522.00	795.30
523.00	825.60
524.00	841.69
525.00	858.06
526.00	868.88
527.00	881.82
528.00	920.40
529.00	937.17
530.00	954.48
531.00	975.60
532.00	998.81
533.00	1012.95
534.00	1023.56
535.00	1029.57
536.00	1052.15
537.00	1082.77
538.00	1098.85
539.00	1092.99
540.00	1091.33
541.00	1126.73
542.00	1111.08
543.00	1119.34
544.00	1124.99
545.00	1122.06
546.00	1124.25
547.00	1120.79
548.00	1131.78
549.00	1126.45
550.00	1136.49
551.00	1109.94
552.00	1146.74
553.00	1127.96
554.00	1138.88
555.00	1133.05
556.00	1157.28
557.00	1166.43
558.00	1153.92
559.00	1161.06
560.00	1166.62
561.00	1188.96
562.00	1204.33
563.00	1194.65
564.00	1232.74
565.00	1247.69
566.00	1243.50
567.00	1241.37
568.00	1278.75
569.00	1270.98
570.00	1292.42
571.00	1318.71
572.00	1333.97
573.00	1329.24
574.00	1349.52
575.00	1379.04
576.00	1397.50
577.00	1413.62
578.00	1429.81
579.00	1448.73
580.00	1458.10
581.00	1475.32
582.00	1465.07
583.00	1494.68
584.00	1503.69
585.00	1477.15
586.00	1491.64
587.00	1506.17
588.00	1502.75
589.00	1497.46
590.00	1520.49
591.00	1499.30
592.00	1519.78
593.00	1493.73
594.00	1512.04
595.00	1502.39
596.00	1481.90
597.00	1473.04
598.00	1485.40
599.00	1473.38
600.00	1484.41
601.00	1492.84
602.00	1478.66
603.00	1471.53
604.00	1492.73
605.00	1482.49
606.00	1481.76
607.00	1483.89
608.00	1491.79
609.00	1501.24
610.00	1476.18
611.00	1498.25
612.00	1491.10
613.00	1506.48
614.00	1510.26
615.00	1524.42
616.00	1506.55
617.00	1516.86
618.00	1517.47
619.00	1536.46
620.00	1556.79
621.00	1551.88
622.00	1568.09
623.00	1563.89
624.00	1576.82
625.00	1587.61
626.00	1581.43
627.00	1605.42
628.00	1612.86
629.00	1612.37
630.00	1622.61
631.00	1620.23
632.00	1625.28
633.00	1627.08
634.00	1650.07
635.00	1616.84
636.00	1623.40
637.00	1618.95
638.00	1638.62
639.00	1619.60
640.00	1618.36
641.00	1633.95
642.00	1609.95
643.00	1611.67
644.00	1581.05
645.00	1604.81
646.00	1584.28
647.00	1578.69
648.00	1553.34
649.00	1572.21
650.00	1553.18
651.00	1520.29
652.00	1527.62
653.00	1541.20
654.00	1498.29
655.00	1499.96
656.00	1476.15
657.00	1490.02
658.00	1471.99
659.00	1461.33
660.00	1456.98
661.00	1441.41
662.00	1431.74
663.00	1439.28
664.00	1405.21
665.00	1392.88
666.00	1422.60
667.00	1410.73
668.00	1394.01
669.00	1378.62
670.00	1393.85
671.00	1371.30
672.00	1357.80
673.00	1368.15
674.00	1363.99
675.00	1341.52
676.00	1339.33
677.00	1339.26
678.00	1352.18
679.00	1358.85
680.00	1329.89
681.00	1351.34
682.00	1344.68
683.00	1340.42
684.00	1336.30
685.00	1362.21
686.00	1332.03
687.00	1345.03
688.00	1340.07
689.00	1337.93
690.00	1342.00
691.00	1345.01
692.00	1353.30
693.00	1337.93
694.00	1358.66
695.00	1354.18
696.00	1366.00
697.00	1378.14
698.00	1349.48
699.00	1346.03
700.00	1348.95
701.00	1352.44
702.00	1361.50
703.00	1349.93
704.00	1352.54
705.00	1346.70
706.00	1351.21
707.00	1332.45
708.00	1341.48
709.00	1324.07
710.00	1325.41
711.00	1326.73
712.00	1291.96
713.00	1294.16
714.00	1284.21
715.00	1278.83
716.00	1260.79
717.00	1267.21
718.00	1239.79
719.00	1219.95
720.00	1205.65
721.00	1188.68
722.00	1168.29
723.00	1159.39
724.00	1148.88
725.00	1156.98
726.00	1134.36
727.00	1109.05
728.00	1108.44
729.00	1089.11
730.00	1102.85
731.00	1086.99
732.00	1076.60
733.00	1082.72
734.00	1048.44
735.00	1044.21
736.00	1040.45
737.00	1045.65
738.00	1033.19
739.00	1022.33
740.00	1023.74
741.00	998.90
742.00	996.99
743.00	990.86
744.00	985.56
745.00	971.72
746.00	960.30
747.00	960.55
748.00	948.29
749.00	932.51
750.00	917.18
751.00	932.60
752.00	908.00
753.00	913.17
754.00	914.27
755.00	901.45
756.00	908.91
757.00	892.26
758.00	890.75
759.00	894.07
760.00	878.02
761.00	861.30
762.00	887.59
763.00	857.89
764.00	852.92
765.00	844.14
766.00	834.88
767.00	850.85
768.00	843.57
769.00	832.77
770.00	827.66
771.00	830.46
772.00	838.61
773.00	829.54
774.00	817.53
775.00	800.04
776.00	800.44
777.00	819.30
778.00	789.05
779.00	796.17
780.00	792.85
781.00	785.50
782.00	773.54
783.00	790.58
784.00	784.70
785.00	793.59
786.00	786.69
787.00	786.44
788.00	802.42
789.00	810.00
790.00	815.84
791.00	814.30
792.00	802.91
793.00	810.28
794.00	821.62
795.00	810.86
796.00	807.71
797.00	804.32
798.00	822.02
799.00	816.27
800.00	811.13
801.00	808.85
802.00	811.06
803.00	794.53
804.00	788.32
805.00	797.27
806.00	777.61
807.00	773.27
808.00	779.17
809.00	767.81
810.00	760.68
811.00	764.74
812.00	745.99
813.00	736.40
814.00	740.05
815.00	729.24
816.00	728.07
817.00	719.55
818.00	716.18
819.00	693.78
820.00	694.99
821.00	691.06
822.00	681.46
823.00	685.14
824.00	669.89
825.00	667.84
826.00	654.31
827.00	646.73
828.00	639.97
829.00	636.93
830.00	619.11
831.00	612.18
832.00	610.78
833.00	609.85
834.00	593.84
835.00	593.79
836.00	584.83
837.00	567.02
838.00	567.85
839.00	575.24
840.00	554.59
841.00	558.37
842.00	551.09
843.00	536.12
844.00	552.53
845.00	542.05
846.00	540.40
847.00	518.83
848.00	517.25
849.00	519.31
850.00	515.55
851.00	498.07
852.00	501.68
853.00	499.08
854.00	489.36
855.00	485.27
856.00	481.91
857.00	485.28
858.00	478.15
859.00	477.68
860.00	468.12
861.00	467.99
862.00	455.30
863.00	466.14
864.00	444.76
865.00	461.04
866.00	445.19
867.00	445.29
868.00	439.08
869.00	429.62
870.00	443.81
871.00	426.27
872.00	426.04
873.00	423.79
874.00	420.78
875.00	413.73
876.00	407.73
877.00	408.17
878.00	402.63
879.00	403.01
880.00	390.91
881.00	403.86
882.00	386.34
883.00	390.48
884.00	386.00
885.00	381.46
886.00	391.49
887.00	373.00
888.00	376.57
889.00	375.84
890.00	370.29
891.00	370.40
892.00	367.86
893.00	376.16
894.00	372.44
895.00	373.16
896.00	368.40
897.00	375.76
898.00	363.54
899.00	370.40
900.00	365.06
901.00	369.41
902.00	362.56
903.00	365.80
904.00	372.97
905.00	365.97
906.00	368.26
907.00	364.81
908.00	361.97
909.00	362.91
910.00	365.99
911.00	366.14
912.00	366.04
913.00	364.87
914.00	362.45
915.00	366.21
916.00	362.33
917.00	356.11
918.00	355.56
919.00	352.42
920.00	347.56
921.00	346.81
922.00	347.88
923.00	345.30
924.00	338.08
925.00	338.32
926.00	333.04
927.00	329.93
928.00	333.73
929.00	328.72
930.00	327.92
931.00	320.32
932.00	318.51
933.00	312.43
934.00	306.14
935.00	299.04
936.00	299.52
937.00	284.98
938.00	283.45
939.00	270.32
940.00	261.39
941.00	260.42
942.00	255.06
943.00	253.37
944.00	250.12
945.00	243.46
946.00	243.82
947.00	245.09
948.00	239.89
949.00	241.20
950.00	245.43
951.00	245.27
952.00	235.96
953.00	241.16
954.00	243.59
955.00	246.85
956.00	249.92
957.00	248.95
958.00	244.83
959.00	240.93
960.00	245.66
961.00	244.05
962.00	247.35
963.00	243.51
964.00	245.54
965.00	246.29
966.00	248.38
967.00	238.73
968.00	239.97
969.00	246.28
970.00	240.20
971.00	235.16
972.00	235.93
973.00	232.57
974.00	235.84
975.00	240.04
976.00	232.09
977.00	239.16
978.00	235.43
979.00	229.01
980.00	232.91
981.00	233.37
982.00	233.08
983.00	229.87
984.00	227.24
985.00	226.13
986.00	227.56
987.00	228.63
988.00	226.79
989.00	228.83
990.00	222.16
991.00	218.20
992.00	225.18
993.00	222.39
994.00	217.69
995.00	216.66
996.00	217.22
997.00	215.23
998.00	216.76
999.00	221.07
1000.00	219.72
>>>>>End Processed Spectral Data<<<<<
