SpectraSuite Data File
++++++++++++++++++++++++++++++++++++
Date: Thu Oct 13 11:16:26 CDT 2011
User: Helimak
Dark Spectrum Present: No
Reference Spectrum Present: No
Number of Sampled Component Spectra: 1
Spectrometers: USB2G37154
Integration Time (usec): 20000 (USB2G37154)
Spectra Averaged: 1 (USB2G37154)
Boxcar Smoothing: 0 (USB2G37154)
Correct for Electrical Dark: No (USB2G37154)
Strobe/Lamp Enabled: No (USB2G37154)
Correct for Detector Non-linearity: No (USB2G37154)
Correct for Stray Light: No (USB2G37154)
Number of Pixels in Processed Spectrum: 651
>>>>>Begin Processed Spectral Data<<<<<
350.00	208.69
351.00	210.28
352.00	209.08
353.00	210.66
354.00	205.73
355.00	208.74
356.00	208.01
357.00	205.58
358.00	203.88
359.00	208.00
360.00	208.10
361.00	207.95
362.00	209.26
363.00	210.14
364.00	212.02
365.00	214.49
366.00	212.88
367.00	211.11
368.00	210.17
369.00	210.69
370.00	210.02
371.00	211.76
372.00	212.39
373.00	210.87
374.00	216.91
375.00	217.03
376.00	215.95
377.00	216.59
378.00	216.44
379.00	217.56
380.00	213.45
381.00	220.67
382.00	222.99
383.00	218.65
384.00	223.54
385.00	227.72
386.00	230.02
387.00	231.44
388.00	233.59
389.00	232.45
390.00	229.42
391.00	237.28
392.00	233.45
393.00	236.21
394.00	238.13
395.00	235.47
396.00	240.96
397.00	243.10
398.00	245.04
399.00	247.98
400.00	252.22
401.00	261.51
402.00	262.89
403.00	263.72
404.00	270.01
405.00	273.83
406.00	275.00
407.00	277.09
408.00	280.38
409.00	283.42
410.00	282.94
411.00	282.29
412.00	288.42
413.00	284.74
414.00	283.84
415.00	292.24
416.00	296.94
417.00	301.59
418.00	303.23
419.00	310.91
420.00	311.02
421.00	316.18
422.00	331.10
423.00	324.35
424.00	337.41
425.00	346.98
426.00	355.79
427.00	365.81
428.00	371.81
429.00	383.15
430.00	384.47
431.00	389.00
432.00	390.90
433.00	400.38
434.00	393.84
435.00	408.45
436.00	396.16
437.00	404.41
438.00	401.83
439.00	413.39
440.00	411.42
441.00	423.19
442.00	417.40
443.00	421.32
444.00	425.89
445.00	442.03
446.00	438.66
447.00	459.14
448.00	458.13
449.00	467.77
450.00	474.54
451.00	502.13
452.00	520.53
453.00	542.26
454.00	543.28
455.00	553.38
456.00	576.70
457.00	580.30
458.00	598.01
459.00	617.10
460.00	616.29
461.00	614.00
462.00	638.64
463.00	621.85
464.00	629.75
465.00	625.62
466.00	632.97
467.00	631.79
468.00	646.07
469.00	650.40
470.00	644.84
471.00	653.43
472.00	679.00
473.00	678.21
474.00	706.55
475.00	715.04
476.00	725.49
477.00	759.76
478.00	782.47
479.00	794.75
480.00	824.70
481.00	850.25
482.00	885.38
483.00	916.90
484.00	961.50
485.00	1003.99
486.00	1037.00
487.00	1088.79
488.00	1126.74
489.00	1169.39
490.00	1183.30
491.00	1245.20
492.00	1277.19
493.00	1313.21
494.00	1350.08
495.00	1350.25
496.00	1362.79
497.00	1412.67
498.00	1408.15
499.00	1428.73
500.00	1436.96
501.00	1446.16
502.00	1470.01
503.00	1456.80
504.00	1468.93
505.00	1455.59
506.00	1489.90
507.00	1490.86
508.00	1479.48
509.00	1507.47
510.00	1531.04
511.00	1540.84
512.00	1532.56
513.00	1556.76
514.00	1583.99
515.00	1616.14
516.00	1630.18
517.00	1654.75
518.00	1707.18
519.00	1734.15
520.00	1743.87
521.00	1787.65
522.00	1822.05
523.00	1862.50
524.00	1890.98
525.00	1944.76
526.00	2003.12
527.00	2048.94
528.00	2092.87
529.00	2161.45
530.00	2199.94
531.00	2236.75
532.00	2315.64
533.00	2339.72
534.00	2392.35
535.00	2434.25
536.00	2473.12
537.00	2492.49
538.00	2535.37
539.00	2544.60
540.00	2531.42
541.00	2612.02
542.00	2601.93
543.00	2635.80
544.00	2648.40
545.00	2630.40
546.00	2649.24
547.00	2633.13
548.00	2613.77
549.00	2647.56
550.00	2619.06
551.00	2638.14
552.00	2638.11
553.00	2667.20
554.00	2658.02
555.00	2675.10
556.00	2707.78
557.00	2708.16
558.00	2703.66
559.00	2720.00
560.00	2752.84
561.00	2795.74
562.00	2841.18
563.00	2788.67
564.00	2852.21
565.00	2918.11
566.00	2946.42
567.00	2954.20
568.00	2962.59
569.00	2985.88
570.00	3036.95
571.00	3088.40
572.00	3132.33
573.00	3180.88
574.00	3197.03
575.00	3191.44
576.00	3300.42
577.00	3334.30
578.00	3365.14
579.00	3399.14
580.00	3429.27
581.00	3466.73
582.00	3479.84
583.00	3517.11
584.00	3537.16
585.00	3524.72
586.00	3547.82
587.00	3527.49
588.00	3545.09
589.00	3587.13
590.00	3564.68
591.00	3567.90
592.00	3548.09
593.00	3554.49
594.00	3587.95
595.00	3598.27
596.00	3544.92
597.00	3498.44
598.00	3524.92
599.00	3543.16
600.00	3515.55
601.00	3511.69
602.00	3524.05
603.00	3516.85
604.00	3543.53
605.00	3496.70
606.00	3544.39
607.00	3543.49
608.00	3536.05
609.00	3515.77
610.00	3505.02
611.00	3532.63
612.00	3547.32
613.00	3551.87
614.00	3559.26
615.00	3610.20
616.00	3553.24
617.00	3592.02
618.00	3578.01
619.00	3610.86
620.00	3656.46
621.00	3684.73
622.00	3678.28
623.00	3716.78
624.00	3708.06
625.00	3739.55
626.00	3755.17
627.00	3799.19
628.00	3791.15
629.00	3817.17
630.00	3826.29
631.00	3840.78
632.00	3869.51
633.00	3812.94
634.00	3836.96
635.00	3847.16
636.00	3891.34
637.00	3866.64
638.00	3884.97
639.00	3867.14
640.00	3872.39
641.00	3875.94
642.00	3854.00
643.00	3838.75
644.00	3815.01
645.00	3803.89
646.00	3770.21
647.00	3758.34
648.00	3732.82
649.00	3698.75
650.00	3686.80
651.00	3664.54
652.00	3618.96
653.00	3584.96
654.00	3573.38
655.00	3555.69
656.00	3524.32
657.00	3523.60
658.00	3527.95
659.00	3466.87
660.00	3449.51
661.00	3432.80
662.00	3426.96
663.00	3449.66
664.00	3397.85
665.00	3380.57
666.00	3319.37
667.00	3328.72
668.00	3278.03
669.00	3282.30
670.00	3296.77
671.00	3276.53
672.00	3241.59
673.00	3254.18
674.00	3265.59
675.00	3198.70
676.00	3243.74
677.00	3215.48
678.00	3252.83
679.00	3198.80
680.00	3217.86
681.00	3202.17
682.00	3175.15
683.00	3212.47
684.00	3215.67
685.00	3213.64
686.00	3178.14
687.00	3202.69
688.00	3182.20
689.00	3202.00
690.00	3228.92
691.00	3216.30
692.00	3233.27
693.00	3251.22
694.00	3244.19
695.00	3224.44
696.00	3249.00
697.00	3270.69
698.00	3224.57
699.00	3270.49
700.00	3221.36
701.00	3241.09
702.00	3263.19
703.00	3250.20
704.00	3204.01
705.00	3219.51
706.00	3194.66
707.00	3152.75
708.00	3160.95
709.00	3193.64
710.00	3189.22
711.00	3139.04
712.00	3129.36
713.00	3083.67
714.00	3040.23
715.00	3054.68
716.00	3016.12
717.00	2980.71
718.00	2973.62
719.00	2904.51
720.00	2857.61
721.00	2825.94
722.00	2779.55
723.00	2761.65
724.00	2735.76
725.00	2700.56
726.00	2670.04
727.00	2636.88
728.00	2650.35
729.00	2610.60
730.00	2588.32
731.00	2570.65
732.00	2559.35
733.00	2558.72
734.00	2505.29
735.00	2506.76
736.00	2443.21
737.00	2439.13
738.00	2465.51
739.00	2424.24
740.00	2409.74
741.00	2377.70
742.00	2326.08
743.00	2323.70
744.00	2303.68
745.00	2259.26
746.00	2239.43
747.00	2247.38
748.00	2235.43
749.00	2168.77
750.00	2138.06
751.00	2177.48
752.00	2150.72
753.00	2148.15
754.00	2138.95
755.00	2120.93
756.00	2090.79
757.00	2069.47
758.00	2077.29
759.00	2077.21
760.00	2033.53
761.00	2039.33
762.00	2012.08
763.00	2004.43
764.00	1958.94
765.00	1969.88
766.00	1970.58
767.00	1935.71
768.00	1929.54
769.00	1918.98
770.00	1889.49
771.00	1903.71
772.00	1902.10
773.00	1880.58
774.00	1870.28
775.00	1860.07
776.00	1852.58
777.00	1845.64
778.00	1802.10
779.00	1821.36
780.00	1786.22
781.00	1791.62
782.00	1774.42
783.00	1775.80
784.00	1782.80
785.00	1788.60
786.00	1787.74
787.00	1807.90
788.00	1825.22
789.00	1826.25
790.00	1823.52
791.00	1826.54
792.00	1844.24
793.00	1848.10
794.00	1851.88
795.00	1843.53
796.00	1875.96
797.00	1856.79
798.00	1857.38
799.00	1850.86
800.00	1869.54
801.00	1847.90
802.00	1845.89
803.00	1809.30
804.00	1827.14
805.00	1802.80
806.00	1772.17
807.00	1783.16
808.00	1784.67
809.00	1746.80
810.00	1736.60
811.00	1720.72
812.00	1716.07
813.00	1695.18
814.00	1669.75
815.00	1631.98
816.00	1631.86
817.00	1601.08
818.00	1594.10
819.00	1578.36
820.00	1545.33
821.00	1545.73
822.00	1519.38
823.00	1483.39
824.00	1471.03
825.00	1449.23
826.00	1415.09
827.00	1401.20
828.00	1408.93
829.00	1363.06
830.00	1340.17
831.00	1330.84
832.00	1309.64
833.00	1284.81
834.00	1271.09
835.00	1266.21
836.00	1235.49
837.00	1197.60
838.00	1211.39
839.00	1196.38
840.00	1172.00
841.00	1152.25
842.00	1134.34
843.00	1115.33
844.00	1111.45
845.00	1093.89
846.00	1083.35
847.00	1057.19
848.00	1059.66
849.00	1038.85
850.00	1030.73
851.00	1024.34
852.00	1018.71
853.00	996.63
854.00	969.35
855.00	955.54
856.00	945.04
857.00	940.34
858.00	924.94
859.00	933.47
860.00	918.82
861.00	908.16
862.00	902.29
863.00	882.13
864.00	862.33
865.00	856.02
866.00	866.21
867.00	850.79
868.00	837.07
869.00	820.01
870.00	810.69
871.00	800.56
872.00	798.00
873.00	793.31
874.00	763.93
875.00	758.52
876.00	747.45
877.00	750.94
878.00	730.64
879.00	728.20
880.00	709.08
881.00	717.80
882.00	712.52
883.00	710.33
884.00	693.00
885.00	689.34
886.00	687.90
887.00	674.81
888.00	660.69
889.00	663.15
890.00	650.52
891.00	647.37
892.00	648.48
893.00	641.02
894.00	650.26
895.00	641.71
896.00	642.02
897.00	641.05
898.00	636.00
899.00	642.58
900.00	635.03
901.00	646.47
902.00	632.52
903.00	635.07
904.00	634.68
905.00	647.78
906.00	627.23
907.00	641.82
908.00	627.65
909.00	639.01
910.00	629.73
911.00	625.11
912.00	621.66
913.00	618.27
914.00	623.49
915.00	618.12
916.00	612.59
917.00	610.16
918.00	591.14
919.00	606.53
920.00	597.42
921.00	597.43
922.00	587.79
923.00	565.48
924.00	561.43
925.00	551.82
926.00	542.00
927.00	531.49
928.00	521.43
929.00	515.19
930.00	513.30
931.00	502.90
932.00	495.48
933.00	484.03
934.00	471.42
935.00	461.54
936.00	443.12
937.00	424.14
938.00	404.95
939.00	396.74
940.00	363.58
941.00	351.35
942.00	335.21
943.00	332.42
944.00	319.03
945.00	309.32
946.00	308.95
947.00	306.70
948.00	301.91
949.00	305.11
950.00	313.57
951.00	309.01
952.00	306.96
953.00	315.36
954.00	314.20
955.00	313.03
956.00	312.79
957.00	318.23
958.00	316.25
959.00	312.94
960.00	315.09
961.00	315.75
962.00	309.77
963.00	313.44
964.00	313.37
965.00	311.96
966.00	306.80
967.00	305.23
968.00	302.98
969.00	305.62
970.00	301.07
971.00	298.32
972.00	297.36
973.00	295.65
974.00	291.68
975.00	289.00
976.00	286.61
977.00	285.35
978.00	286.33
979.00	282.03
980.00	279.26
981.00	280.00
982.00	275.51
983.00	272.94
984.00	271.77
985.00	271.53
986.00	266.26
987.00	263.26
988.00	260.41
989.00	259.80
990.00	257.61
991.00	252.07
992.00	254.76
993.00	250.75
994.00	248.48
995.00	246.81
996.00	240.03
997.00	244.04
998.00	240.87
999.00	242.65
1000.00	239.29
>>>>>End Processed Spectral Data<<<<<
