SpectraSuite Data File
++++++++++++++++++++++++++++++++++++
Date: Thu Oct 13 11:31:38 CDT 2011
User: Helimak
Dark Spectrum Present: No
Reference Spectrum Present: No
Number of Sampled Component Spectra: 1
Spectrometers: USB2G37154
Integration Time (usec): 20000 (USB2G37154)
Spectra Averaged: 1 (USB2G37154)
Boxcar Smoothing: 0 (USB2G37154)
Correct for Electrical Dark: No (USB2G37154)
Strobe/Lamp Enabled: No (USB2G37154)
Correct for Detector Non-linearity: No (USB2G37154)
Correct for Stray Light: No (USB2G37154)
Number of Pixels in Processed Spectrum: 651
>>>>>Begin Processed Spectral Data<<<<<
350.00	200.91
351.00	204.76
352.00	197.60
353.00	203.90
354.00	203.46
355.00	204.02
356.00	201.42
357.00	204.07
358.00	201.21
359.00	205.07
360.00	204.74
361.00	207.17
362.00	206.01
363.00	205.97
364.00	206.00
365.00	205.92
366.00	201.83
367.00	206.06
368.00	201.73
369.00	204.37
370.00	205.00
371.00	205.28
372.00	207.23
373.00	204.86
374.00	208.53
375.00	205.16
376.00	206.51
377.00	206.70
378.00	206.42
379.00	209.07
380.00	204.49
381.00	212.08
382.00	211.53
383.00	201.13
384.00	212.16
385.00	211.65
386.00	209.07
387.00	210.22
388.00	210.38
389.00	206.91
390.00	213.65
391.00	210.39
392.00	213.84
393.00	212.03
394.00	212.70
395.00	215.04
396.00	212.02
397.00	212.98
398.00	213.70
399.00	211.63
400.00	212.48
401.00	222.16
402.00	217.46
403.00	217.93
404.00	218.56
405.00	221.34
406.00	224.01
407.00	220.44
408.00	215.19
409.00	221.50
410.00	225.54
411.00	221.91
412.00	222.73
413.00	227.90
414.00	223.00
415.00	222.41
416.00	223.08
417.00	225.01
418.00	227.13
419.00	228.25
420.00	229.20
421.00	229.13
422.00	231.93
423.00	227.67
424.00	235.65
425.00	232.79
426.00	231.92
427.00	238.89
428.00	237.60
429.00	242.67
430.00	242.29
431.00	239.33
432.00	241.74
433.00	240.63
434.00	241.00
435.00	240.60
436.00	242.82
437.00	242.33
438.00	246.09
439.00	240.36
440.00	243.01
441.00	243.49
442.00	246.31
443.00	243.55
444.00	249.30
445.00	248.93
446.00	247.66
447.00	251.82
448.00	247.87
449.00	254.09
450.00	261.62
451.00	260.38
452.00	266.00
453.00	265.32
454.00	270.10
455.00	271.03
456.00	272.75
457.00	278.58
458.00	279.16
459.00	272.99
460.00	276.78
461.00	273.34
462.00	279.10
463.00	278.78
464.00	277.87
465.00	279.04
466.00	285.61
467.00	276.95
468.00	280.98
469.00	279.30
470.00	286.96
471.00	281.72
472.00	286.07
473.00	285.05
474.00	283.85
475.00	287.27
476.00	296.20
477.00	295.96
478.00	302.56
479.00	300.88
480.00	306.80
481.00	307.48
482.00	316.21
483.00	325.14
484.00	333.78
485.00	325.84
486.00	332.60
487.00	339.20
488.00	343.16
489.00	352.05
490.00	350.37
491.00	365.74
492.00	371.00
493.00	368.38
494.00	370.53
495.00	378.03
496.00	378.36
497.00	378.21
498.00	376.75
499.00	391.72
500.00	384.62
501.00	375.60
502.00	373.01
503.00	377.51
504.00	378.62
505.00	377.68
506.00	385.78
507.00	379.15
508.00	381.58
509.00	387.12
510.00	390.63
511.00	392.01
512.00	387.02
513.00	391.92
514.00	395.50
515.00	391.89
516.00	393.30
517.00	401.09
518.00	414.53
519.00	410.15
520.00	403.10
521.00	410.68
522.00	416.67
523.00	419.23
524.00	422.16
525.00	429.43
526.00	434.77
527.00	441.92
528.00	452.42
529.00	454.88
530.00	455.01
531.00	461.45
532.00	471.48
533.00	472.87
534.00	471.38
535.00	474.06
536.00	484.66
537.00	488.00
538.00	490.84
539.00	501.79
540.00	490.49
541.00	500.52
542.00	497.90
543.00	501.55
544.00	501.81
545.00	494.93
546.00	491.03
547.00	500.46
548.00	498.30
549.00	499.16
550.00	499.22
551.00	483.03
552.00	499.06
553.00	500.90
554.00	495.29
555.00	507.57
556.00	500.40
557.00	493.45
558.00	494.88
559.00	490.24
560.00	497.87
561.00	505.81
562.00	504.92
563.00	514.49
564.00	500.80
565.00	518.59
566.00	514.21
567.00	523.16
568.00	528.49
569.00	522.82
570.00	528.98
571.00	547.56
572.00	533.76
573.00	543.28
574.00	538.99
575.00	551.95
576.00	556.41
577.00	558.55
578.00	563.19
579.00	567.47
580.00	567.92
581.00	575.80
582.00	575.23
583.00	567.98
584.00	583.31
585.00	586.17
586.00	576.54
587.00	575.98
588.00	582.34
589.00	578.73
590.00	588.83
591.00	581.01
592.00	578.80
593.00	577.16
594.00	579.00
595.00	582.34
596.00	581.05
597.00	576.72
598.00	575.93
599.00	576.84
600.00	574.25
601.00	577.79
602.00	565.24
603.00	575.76
604.00	578.96
605.00	573.14
606.00	573.81
607.00	572.94
608.00	569.53
609.00	583.15
610.00	566.97
611.00	580.64
612.00	581.13
613.00	579.84
614.00	578.07
615.00	587.99
616.00	578.96
617.00	576.01
618.00	595.99
619.00	593.80
620.00	592.37
621.00	590.98
622.00	591.70
623.00	601.58
624.00	607.59
625.00	596.10
626.00	613.81
627.00	614.71
628.00	614.20
629.00	612.16
630.00	610.17
631.00	623.13
632.00	619.03
633.00	614.83
634.00	618.43
635.00	621.72
636.00	624.35
637.00	630.07
638.00	627.18
639.00	624.75
640.00	619.64
641.00	623.93
642.00	623.39
643.00	627.91
644.00	624.38
645.00	616.25
646.00	603.93
647.00	610.22
648.00	614.70
649.00	607.87
650.00	601.70
651.00	598.13
652.00	597.16
653.00	597.06
654.00	590.72
655.00	596.30
656.00	590.09
657.00	596.17
658.00	585.99
659.00	574.12
660.00	583.66
661.00	574.63
662.00	579.10
663.00	581.33
664.00	573.15
665.00	570.28
666.00	566.87
667.00	572.16
668.00	574.36
669.00	560.26
670.00	565.40
671.00	566.41
672.00	569.91
673.00	551.95
674.00	562.18
675.00	552.98
676.00	568.99
677.00	559.97
678.00	565.18
679.00	570.14
680.00	568.82
681.00	570.03
682.00	572.24
683.00	569.74
684.00	570.79
685.00	573.62
686.00	563.79
687.00	567.39
688.00	563.35
689.00	574.86
690.00	571.71
691.00	576.60
692.00	581.85
693.00	573.71
694.00	581.62
695.00	591.82
696.00	594.00
697.00	586.93
698.00	587.09
699.00	594.27
700.00	587.84
701.00	599.78
702.00	582.59
703.00	590.45
704.00	589.27
705.00	581.76
706.00	592.29
707.00	588.06
708.00	584.99
709.00	587.31
710.00	592.08
711.00	585.66
712.00	583.76
713.00	575.83
714.00	573.03
715.00	589.82
716.00	575.33
717.00	570.42
718.00	568.27
719.00	569.35
720.00	555.43
721.00	560.28
722.00	556.86
723.00	548.92
724.00	554.44
725.00	549.62
726.00	543.70
727.00	533.49
728.00	537.80
729.00	539.74
730.00	535.82
731.00	531.06
732.00	527.42
733.00	535.01
734.00	535.00
735.00	531.67
736.00	512.88
737.00	522.62
738.00	525.10
739.00	522.33
740.00	531.72
741.00	515.71
742.00	520.12
743.00	515.86
744.00	515.62
745.00	519.50
746.00	509.25
747.00	513.75
748.00	503.34
749.00	507.87
750.00	504.56
751.00	511.99
752.00	499.12
753.00	506.60
754.00	506.71
755.00	504.93
756.00	511.36
757.00	508.50
758.00	506.98
759.00	512.72
760.00	509.28
761.00	505.45
762.00	501.52
763.00	501.46
764.00	508.00
765.00	495.07
766.00	509.35
767.00	504.55
768.00	500.02
769.00	507.15
770.00	515.63
771.00	506.47
772.00	507.76
773.00	514.57
774.00	508.42
775.00	508.33
776.00	524.07
777.00	517.23
778.00	507.04
779.00	517.99
780.00	508.63
781.00	518.04
782.00	516.62
783.00	511.19
784.00	519.96
785.00	522.74
786.00	532.96
787.00	537.00
788.00	537.96
789.00	557.96
790.00	539.81
791.00	554.13
792.00	549.06
793.00	560.62
794.00	563.30
795.00	565.10
796.00	572.64
797.00	565.99
798.00	581.82
799.00	574.64
800.00	578.99
801.00	587.28
802.00	576.53
803.00	573.73
804.00	583.58
805.00	582.23
806.00	585.05
807.00	581.19
808.00	583.11
809.00	586.88
810.00	579.41
811.00	584.14
812.00	576.09
813.00	588.54
814.00	578.95
815.00	567.91
816.00	577.17
817.00	566.46
818.00	559.21
819.00	560.50
820.00	561.18
821.00	565.97
822.00	556.55
823.00	554.82
824.00	547.81
825.00	551.40
826.00	539.96
827.00	546.90
828.00	540.50
829.00	545.06
830.00	528.42
831.00	530.18
832.00	535.64
833.00	532.07
834.00	521.91
835.00	522.26
836.00	512.08
837.00	515.15
838.00	507.09
839.00	508.30
840.00	507.03
841.00	498.07
842.00	500.46
843.00	494.52
844.00	498.26
845.00	496.71
846.00	495.74
847.00	481.77
848.00	490.89
849.00	488.71
850.00	484.20
851.00	483.81
852.00	479.40
853.00	482.57
854.00	471.14
855.00	477.17
856.00	466.95
857.00	472.01
858.00	470.74
859.00	459.04
860.00	467.32
861.00	467.83
862.00	457.60
863.00	455.57
864.00	464.96
865.00	453.83
866.00	455.11
867.00	453.42
868.00	446.00
869.00	437.44
870.00	452.08
871.00	444.49
872.00	440.97
873.00	448.32
874.00	436.09
875.00	429.08
876.00	429.23
877.00	438.66
878.00	427.90
879.00	424.90
880.00	424.07
881.00	429.28
882.00	426.66
883.00	419.10
884.00	414.99
885.00	422.51
886.00	419.45
887.00	412.18
888.00	412.77
889.00	410.19
890.00	414.06
891.00	414.47
892.00	416.63
893.00	409.61
894.00	418.99
895.00	425.04
896.00	419.71
897.00	420.59
898.00	428.19
899.00	416.70
900.00	418.28
901.00	424.34
902.00	429.63
903.00	428.71
904.00	434.70
905.00	431.78
906.00	432.65
907.00	431.36
908.00	435.05
909.00	437.39
910.00	435.97
911.00	441.45
912.00	444.93
913.00	437.91
914.00	442.02
915.00	445.78
916.00	437.93
917.00	435.22
918.00	434.52
919.00	440.56
920.00	435.92
921.00	434.20
922.00	431.76
923.00	423.00
924.00	428.09
925.00	414.97
926.00	405.01
927.00	407.93
928.00	411.79
929.00	394.92
930.00	396.48
931.00	393.30
932.00	383.95
933.00	382.32
934.00	374.43
935.00	366.56
936.00	352.92
937.00	346.83
938.00	343.95
939.00	321.89
940.00	309.82
941.00	300.67
942.00	297.94
943.00	288.92
944.00	285.13
945.00	280.16
946.00	281.79
947.00	277.01
948.00	278.60
949.00	279.34
950.00	278.93
951.00	278.47
952.00	282.05
953.00	280.98
954.00	285.18
955.00	280.20
956.00	290.51
957.00	288.73
958.00	285.41
959.00	284.97
960.00	291.37
961.00	287.84
962.00	290.09
963.00	287.53
964.00	286.96
965.00	283.18
966.00	289.50
967.00	286.09
968.00	284.01
969.00	280.28
970.00	277.76
971.00	277.24
972.00	278.32
973.00	277.59
974.00	269.25
975.00	272.13
976.00	270.27
977.00	269.50
978.00	264.55
979.00	265.99
980.00	266.89
981.00	259.75
982.00	255.90
983.00	259.72
984.00	257.41
985.00	257.59
986.00	249.58
987.00	249.78
988.00	250.65
989.00	247.99
990.00	250.29
991.00	245.46
992.00	245.43
993.00	245.27
994.00	243.05
995.00	238.50
996.00	244.03
997.00	245.28
998.00	230.17
999.00	227.38
1000.00	237.82
>>>>>End Processed Spectral Data<<<<<
