SpectraSuite Data File
++++++++++++++++++++++++++++++++++++
Date: Thu Oct 13 11:28:16 CDT 2011
User: Helimak
Dark Spectrum Present: No
Reference Spectrum Present: No
Number of Sampled Component Spectra: 1
Spectrometers: USB2G37154
Integration Time (usec): 20000 (USB2G37154)
Spectra Averaged: 1 (USB2G37154)
Boxcar Smoothing: 0 (USB2G37154)
Correct for Electrical Dark: No (USB2G37154)
Strobe/Lamp Enabled: No (USB2G37154)
Correct for Detector Non-linearity: No (USB2G37154)
Correct for Stray Light: No (USB2G37154)
Number of Pixels in Processed Spectrum: 651
>>>>>Begin Processed Spectral Data<<<<<
350.00	202.79
351.00	199.19
352.00	204.44
353.00	202.27
354.00	204.27
355.00	202.15
356.00	203.13
357.00	202.65
358.00	202.77
359.00	198.11
360.00	203.83
361.00	203.01
362.00	204.66
363.00	199.55
364.00	203.29
365.00	203.64
366.00	202.93
367.00	201.08
368.00	210.33
369.00	204.70
370.00	206.03
371.00	207.60
372.00	213.49
373.00	205.94
374.00	204.89
375.00	206.00
376.00	205.11
377.00	204.49
378.00	203.35
379.00	206.41
380.00	202.78
381.00	207.65
382.00	206.51
383.00	209.04
384.00	206.57
385.00	206.23
386.00	208.99
387.00	208.23
388.00	205.00
389.00	206.05
390.00	205.05
391.00	207.80
392.00	206.71
393.00	204.15
394.00	206.84
395.00	205.72
396.00	210.02
397.00	212.40
398.00	209.07
399.00	210.09
400.00	211.74
401.00	211.75
402.00	218.43
403.00	216.58
404.00	219.60
405.00	216.90
406.00	219.00
407.00	216.39
408.00	218.41
409.00	219.19
410.00	217.31
411.00	223.26
412.00	218.81
413.00	220.95
414.00	220.66
415.00	223.21
416.00	219.05
417.00	222.91
418.00	222.19
419.00	225.79
420.00	227.50
421.00	224.84
422.00	227.27
423.00	225.10
424.00	229.21
425.00	232.32
426.00	229.30
427.00	235.02
428.00	232.35
429.00	242.14
430.00	237.33
431.00	237.64
432.00	238.40
433.00	242.33
434.00	244.94
435.00	243.75
436.00	241.67
437.00	240.01
438.00	243.72
439.00	243.97
440.00	243.59
441.00	246.10
442.00	239.99
443.00	245.02
444.00	248.85
445.00	249.96
446.00	248.97
447.00	250.49
448.00	251.23
449.00	258.03
450.00	260.95
451.00	260.45
452.00	268.97
453.00	270.90
454.00	270.56
455.00	277.09
456.00	279.05
457.00	280.89
458.00	282.53
459.00	285.10
460.00	286.81
461.00	285.62
462.00	285.57
463.00	283.54
464.00	288.36
465.00	292.44
466.00	291.24
467.00	287.99
468.00	288.80
469.00	294.77
470.00	291.80
471.00	300.49
472.00	299.67
473.00	301.20
474.00	304.71
475.00	305.33
476.00	307.88
477.00	310.88
478.00	319.40
479.00	322.64
480.00	338.74
481.00	335.95
482.00	338.94
483.00	345.12
484.00	356.97
485.00	364.35
486.00	369.25
487.00	380.72
488.00	388.94
489.00	392.95
490.00	405.10
491.00	416.56
492.00	418.88
493.00	417.20
494.00	424.16
495.00	436.64
496.00	435.81
497.00	439.49
498.00	444.30
499.00	444.46
500.00	453.69
501.00	450.85
502.00	456.99
503.00	463.42
504.00	459.48
505.00	456.93
506.00	458.25
507.00	464.14
508.00	458.43
509.00	467.73
510.00	476.60
511.00	474.99
512.00	467.63
513.00	480.38
514.00	488.54
515.00	478.26
516.00	496.95
517.00	488.85
518.00	500.16
519.00	513.54
520.00	513.53
521.00	517.77
522.00	531.55
523.00	541.62
524.00	550.08
525.00	548.00
526.00	572.98
527.00	580.46
528.00	587.12
529.00	599.11
530.00	603.43
531.00	625.48
532.00	637.25
533.00	641.83
534.00	643.36
535.00	648.14
536.00	670.70
537.00	674.33
538.00	688.41
539.00	687.61
540.00	686.75
541.00	702.21
542.00	711.92
543.00	715.09
544.00	722.01
545.00	709.57
546.00	716.96
547.00	716.72
548.00	707.43
549.00	706.55
550.00	707.27
551.00	719.98
552.00	721.46
553.00	720.57
554.00	715.38
555.00	734.31
556.00	735.43
557.00	730.71
558.00	738.69
559.00	735.63
560.00	740.79
561.00	752.38
562.00	756.68
563.00	763.83
564.00	773.19
565.00	782.00
566.00	781.29
567.00	795.12
568.00	805.41
569.00	811.77
570.00	812.03
571.00	812.65
572.00	827.98
573.00	850.37
574.00	850.60
575.00	844.31
576.00	858.82
577.00	876.36
578.00	891.52
579.00	897.64
580.00	902.55
581.00	911.70
582.00	912.16
583.00	927.70
584.00	932.79
585.00	930.80
586.00	949.13
587.00	939.13
588.00	937.19
589.00	936.74
590.00	948.74
591.00	946.94
592.00	949.40
593.00	931.55
594.00	946.98
595.00	963.38
596.00	942.44
597.00	942.72
598.00	958.72
599.00	941.09
600.00	934.92
601.00	947.86
602.00	934.56
603.00	931.44
604.00	932.66
605.00	938.67
606.00	948.02
607.00	953.24
608.00	947.09
609.00	934.87
610.00	949.73
611.00	952.52
612.00	955.60
613.00	960.05
614.00	961.82
615.00	974.74
616.00	951.81
617.00	962.00
618.00	983.47
619.00	991.28
620.00	996.71
621.00	988.79
622.00	983.89
623.00	977.04
624.00	1006.73
625.00	1012.43
626.00	1014.90
627.00	1020.30
628.00	1023.49
629.00	1012.74
630.00	1035.37
631.00	1031.16
632.00	1046.81
633.00	1046.79
634.00	1045.20
635.00	1061.62
636.00	1042.07
637.00	1036.36
638.00	1052.46
639.00	1037.13
640.00	1061.60
641.00	1032.19
642.00	1038.75
643.00	1050.05
644.00	1020.08
645.00	1025.76
646.00	1000.00
647.00	1016.98
648.00	1019.93
649.00	1012.37
650.00	1011.11
651.00	993.07
652.00	999.13
653.00	992.97
654.00	970.70
655.00	970.04
656.00	970.98
657.00	961.82
658.00	956.00
659.00	958.86
660.00	948.50
661.00	944.43
662.00	927.50
663.00	942.33
664.00	924.71
665.00	930.29
666.00	922.85
667.00	924.95
668.00	928.03
669.00	915.46
670.00	907.92
671.00	907.39
672.00	919.89
673.00	911.12
674.00	923.14
675.00	910.05
676.00	901.18
677.00	907.46
678.00	900.92
679.00	892.05
680.00	895.46
681.00	908.15
682.00	899.70
683.00	893.75
684.00	894.48
685.00	883.32
686.00	898.84
687.00	894.91
688.00	906.23
689.00	898.82
690.00	900.22
691.00	907.36
692.00	893.70
693.00	890.04
694.00	889.68
695.00	910.14
696.00	906.00
697.00	929.07
698.00	916.50
699.00	917.40
700.00	893.64
701.00	908.18
702.00	900.14
703.00	919.81
704.00	899.89
705.00	893.67
706.00	894.03
707.00	896.79
708.00	882.45
709.00	912.72
710.00	894.02
711.00	879.40
712.00	884.97
713.00	874.22
714.00	861.68
715.00	853.50
716.00	857.36
717.00	842.92
718.00	853.66
719.00	831.07
720.00	826.14
721.00	817.50
722.00	803.30
723.00	793.31
724.00	791.39
725.00	785.37
726.00	780.50
727.00	766.55
728.00	762.11
729.00	770.71
730.00	750.45
731.00	746.35
732.00	760.62
733.00	747.19
734.00	736.94
735.00	729.04
736.00	729.70
737.00	719.23
738.00	731.19
739.00	719.36
740.00	713.61
741.00	700.73
742.00	694.94
743.00	704.74
744.00	689.01
745.00	677.10
746.00	670.06
747.00	672.92
748.00	682.59
749.00	660.18
750.00	659.58
751.00	654.63
752.00	645.77
753.00	649.60
754.00	650.01
755.00	646.38
756.00	636.06
757.00	629.32
758.00	625.68
759.00	640.21
760.00	620.59
761.00	627.81
762.00	624.66
763.00	615.43
764.00	622.10
765.00	609.86
766.00	609.31
767.00	595.47
768.00	607.17
769.00	596.71
770.00	597.09
771.00	587.47
772.00	604.19
773.00	597.17
774.00	585.46
775.00	592.37
776.00	589.49
777.00	585.33
778.00	576.98
779.00	578.99
780.00	568.93
781.00	571.37
782.00	580.20
783.00	571.94
784.00	572.79
785.00	570.64
786.00	570.75
787.00	567.82
788.00	584.65
789.00	584.95
790.00	582.62
791.00	585.05
792.00	580.17
793.00	593.09
794.00	583.29
795.00	584.72
796.00	579.25
797.00	579.97
798.00	584.02
799.00	585.31
800.00	582.59
801.00	584.42
802.00	588.93
803.00	591.83
804.00	578.44
805.00	584.41
806.00	565.14
807.00	572.16
808.00	563.94
809.00	567.02
810.00	558.02
811.00	558.11
812.00	559.67
813.00	554.10
814.00	550.98
815.00	546.60
816.00	536.96
817.00	532.84
818.00	529.49
819.00	526.44
820.00	529.83
821.00	510.00
822.00	518.16
823.00	503.17
824.00	507.76
825.00	506.43
826.00	492.87
827.00	482.66
828.00	478.66
829.00	475.15
830.00	466.38
831.00	467.40
832.00	474.18
833.00	456.28
834.00	465.01
835.00	455.30
836.00	450.52
837.00	449.12
838.00	449.06
839.00	443.23
840.00	440.41
841.00	434.03
842.00	434.68
843.00	422.04
844.00	430.18
845.00	421.30
846.00	413.63
847.00	412.42
848.00	412.50
849.00	404.47
850.00	400.06
851.00	396.60
852.00	396.57
853.00	394.19
854.00	400.71
855.00	383.26
856.00	388.14
857.00	382.45
858.00	382.74
859.00	373.36
860.00	382.03
861.00	376.27
862.00	372.53
863.00	368.49
864.00	364.73
865.00	361.36
866.00	365.51
867.00	357.98
868.00	364.00
869.00	359.49
870.00	354.83
871.00	355.98
872.00	346.41
873.00	344.80
874.00	338.15
875.00	339.50
876.00	341.43
877.00	333.09
878.00	337.33
879.00	328.43
880.00	326.54
881.00	329.15
882.00	329.16
883.00	322.99
884.00	327.00
885.00	322.29
886.00	327.40
887.00	319.85
888.00	315.31
889.00	315.24
890.00	314.74
891.00	310.32
892.00	308.99
893.00	312.19
894.00	309.51
895.00	311.14
896.00	313.14
897.00	315.39
898.00	309.36
899.00	306.56
900.00	309.12
901.00	312.24
902.00	304.70
903.00	303.69
904.00	311.71
905.00	308.89
906.00	310.64
907.00	310.74
908.00	316.09
909.00	309.45
910.00	307.84
911.00	309.08
912.00	306.85
913.00	311.80
914.00	313.86
915.00	304.96
916.00	308.23
917.00	300.58
918.00	305.00
919.00	297.99
920.00	294.10
921.00	302.68
922.00	296.38
923.00	292.82
924.00	296.37
925.00	291.19
926.00	291.03
927.00	282.99
928.00	288.71
929.00	278.87
930.00	281.95
931.00	282.24
932.00	271.15
933.00	272.28
934.00	263.28
935.00	269.25
936.00	266.40
937.00	266.02
938.00	249.81
939.00	248.17
940.00	246.19
941.00	233.73
942.00	237.94
943.00	233.05
944.00	232.23
945.00	233.01
946.00	225.30
947.00	228.05
948.00	228.01
949.00	230.58
950.00	227.24
951.00	221.22
952.00	232.92
953.00	232.11
954.00	227.28
955.00	230.56
956.00	228.97
957.00	229.50
958.00	232.76
959.00	229.97
960.00	232.45
961.00	228.53
962.00	229.96
963.00	225.75
964.00	231.75
965.00	229.31
966.00	228.62
967.00	229.38
968.00	229.96
969.00	224.71
970.00	223.02
971.00	227.41
972.00	226.47
973.00	224.80
974.00	221.83
975.00	223.78
976.00	221.88
977.00	221.28
978.00	221.72
979.00	223.01
980.00	221.86
981.00	219.00
982.00	217.56
983.00	218.38
984.00	218.80
985.00	215.38
986.00	220.25
987.00	216.06
988.00	217.61
989.00	211.89
990.00	215.74
991.00	215.98
992.00	214.28
993.00	212.86
994.00	217.10
995.00	214.07
996.00	212.18
997.00	214.96
998.00	216.08
999.00	212.22
1000.00	209.81
>>>>>End Processed Spectral Data<<<<<
