SpectraSuite Data File
++++++++++++++++++++++++++++++++++++
Date: Thu Oct 13 11:28:16 CDT 2011
User: Helimak
Dark Spectrum Present: No
Reference Spectrum Present: No
Number of Sampled Component Spectra: 1
Spectrometers: USB2G37154
Integration Time (usec): 20000 (USB2G37154)
Spectra Averaged: 1 (USB2G37154)
Boxcar Smoothing: 0 (USB2G37154)
Correct for Electrical Dark: No (USB2G37154)
Strobe/Lamp Enabled: No (USB2G37154)
Correct for Detector Non-linearity: No (USB2G37154)
Correct for Stray Light: No (USB2G37154)
Number of Pixels in Processed Spectrum: 651
>>>>>Begin Processed Spectral Data<<<<<
350.00	201.21
351.00	201.64
352.00	202.95
353.00	201.81
354.00	202.76
355.00	201.62
356.00	201.49
357.00	205.21
358.00	204.14
359.00	203.82
360.00	198.55
361.00	201.70
362.00	203.18
363.00	207.90
364.00	204.10
365.00	201.10
366.00	206.96
367.00	201.95
368.00	205.96
369.00	205.13
370.00	201.03
371.00	201.53
372.00	205.61
373.00	204.94
374.00	208.36
375.00	205.88
376.00	209.22
377.00	204.33
378.00	207.31
379.00	210.73
380.00	206.14
381.00	203.82
382.00	209.35
383.00	204.71
384.00	207.42
385.00	210.73
386.00	208.98
387.00	209.67
388.00	208.69
389.00	210.68
390.00	208.17
391.00	211.16
392.00	207.10
393.00	213.98
394.00	209.95
395.00	208.88
396.00	206.09
397.00	212.45
398.00	214.13
399.00	215.11
400.00	211.94
401.00	215.42
402.00	218.05
403.00	217.11
404.00	218.30
405.00	222.19
406.00	220.00
407.00	217.23
408.00	220.46
409.00	223.63
410.00	220.26
411.00	221.57
412.00	217.75
413.00	221.06
414.00	222.75
415.00	218.07
416.00	222.14
417.00	218.91
418.00	221.41
419.00	226.65
420.00	222.09
421.00	224.19
422.00	231.02
423.00	224.74
424.00	236.70
425.00	231.68
426.00	229.23
427.00	235.15
428.00	234.67
429.00	234.48
430.00	235.30
431.00	244.32
432.00	238.38
433.00	240.85
434.00	240.00
435.00	242.01
436.00	247.83
437.00	244.31
438.00	242.00
439.00	243.70
440.00	244.56
441.00	245.81
442.00	248.85
443.00	248.60
444.00	252.69
445.00	253.01
446.00	250.29
447.00	256.87
448.00	256.39
449.00	259.88
450.00	262.78
451.00	266.45
452.00	271.68
453.00	267.45
454.00	275.30
455.00	272.69
456.00	279.65
457.00	279.95
458.00	280.52
459.00	281.82
460.00	291.72
461.00	283.60
462.00	287.17
463.00	289.78
464.00	294.20
465.00	286.04
466.00	294.15
467.00	292.03
468.00	294.54
469.00	298.97
470.00	291.53
471.00	300.50
472.00	302.71
473.00	302.91
474.00	309.09
475.00	309.71
476.00	314.08
477.00	311.66
478.00	320.10
479.00	320.72
480.00	328.99
481.00	331.79
482.00	336.10
483.00	349.05
484.00	353.08
485.00	367.77
486.00	377.68
487.00	382.49
488.00	385.99
489.00	396.95
490.00	404.51
491.00	418.46
492.00	423.46
493.00	423.42
494.00	437.87
495.00	438.80
496.00	432.52
497.00	447.18
498.00	451.06
499.00	447.93
500.00	447.30
501.00	457.64
502.00	462.01
503.00	454.94
504.00	462.31
505.00	451.80
506.00	458.66
507.00	464.64
508.00	464.15
509.00	470.00
510.00	474.83
511.00	481.16
512.00	480.57
513.00	483.67
514.00	489.94
515.00	494.69
516.00	492.10
517.00	493.07
518.00	507.75
519.00	509.93
520.00	520.21
521.00	518.57
522.00	543.08
523.00	543.39
524.00	554.56
525.00	568.70
526.00	567.69
527.00	586.18
528.00	589.62
529.00	606.14
530.00	615.95
531.00	633.42
532.00	636.46
533.00	650.66
534.00	662.45
535.00	654.96
536.00	671.35
537.00	680.92
538.00	689.48
539.00	693.45
540.00	694.99
541.00	710.70
542.00	719.94
543.00	708.19
544.00	717.32
545.00	698.06
546.00	710.87
547.00	716.69
548.00	721.51
549.00	712.41
550.00	713.94
551.00	726.91
552.00	725.35
553.00	721.59
554.00	733.34
555.00	720.13
556.00	734.07
557.00	733.14
558.00	743.51
559.00	744.31
560.00	749.79
561.00	754.59
562.00	770.85
563.00	774.50
564.00	777.00
565.00	781.86
566.00	801.18
567.00	795.83
568.00	796.23
569.00	825.59
570.00	819.44
571.00	831.25
572.00	846.12
573.00	848.39
574.00	873.38
575.00	864.60
576.00	886.26
577.00	895.18
578.00	903.98
579.00	910.14
580.00	919.75
581.00	934.25
582.00	941.63
583.00	930.27
584.00	938.96
585.00	943.14
586.00	951.12
587.00	946.16
588.00	946.11
589.00	945.58
590.00	937.63
591.00	952.40
592.00	961.78
593.00	944.01
594.00	948.95
595.00	948.77
596.00	956.20
597.00	959.61
598.00	954.40
599.00	941.79
600.00	950.70
601.00	946.86
602.00	929.88
603.00	950.29
604.00	952.08
605.00	942.44
606.00	962.12
607.00	950.45
608.00	953.74
609.00	963.08
610.00	951.69
611.00	954.60
612.00	981.99
613.00	972.16
614.00	980.16
615.00	982.22
616.00	979.12
617.00	976.03
618.00	971.40
619.00	998.49
620.00	996.52
621.00	999.33
622.00	1010.89
623.00	1009.82
624.00	1023.68
625.00	1011.31
626.00	1019.38
627.00	1023.13
628.00	1036.66
629.00	1038.18
630.00	1030.05
631.00	1060.33
632.00	1042.11
633.00	1049.40
634.00	1055.46
635.00	1054.14
636.00	1060.42
637.00	1051.15
638.00	1052.05
639.00	1057.58
640.00	1067.59
641.00	1049.54
642.00	1050.94
643.00	1058.32
644.00	1039.64
645.00	1033.97
646.00	1016.11
647.00	1029.56
648.00	1029.29
649.00	1017.07
650.00	1027.47
651.00	1014.86
652.00	1001.45
653.00	978.33
654.00	1007.33
655.00	981.83
656.00	975.40
657.00	968.50
658.00	967.99
659.00	965.30
660.00	954.47
661.00	952.05
662.00	944.54
663.00	948.60
664.00	928.10
665.00	926.24
666.00	922.24
667.00	923.78
668.00	938.77
669.00	924.76
670.00	905.25
671.00	925.12
672.00	918.10
673.00	928.97
674.00	917.58
675.00	889.24
676.00	910.72
677.00	893.38
678.00	908.53
679.00	897.63
680.00	909.67
681.00	912.90
682.00	908.47
683.00	908.94
684.00	887.44
685.00	912.48
686.00	894.27
687.00	897.00
688.00	899.43
689.00	907.09
690.00	904.56
691.00	892.02
692.00	923.05
693.00	896.78
694.00	916.77
695.00	917.46
696.00	918.00
697.00	934.02
698.00	902.44
699.00	912.80
700.00	908.04
701.00	899.72
702.00	926.63
703.00	910.57
704.00	916.41
705.00	917.20
706.00	903.06
707.00	910.83
708.00	905.47
709.00	917.74
710.00	905.73
711.00	891.16
712.00	881.01
713.00	887.09
714.00	865.19
715.00	865.39
716.00	860.55
717.00	854.48
718.00	849.55
719.00	842.17
720.00	831.03
721.00	817.42
722.00	809.35
723.00	793.74
724.00	791.57
725.00	790.76
726.00	782.88
727.00	770.96
728.00	759.76
729.00	760.17
730.00	755.85
731.00	747.65
732.00	753.59
733.00	748.45
734.00	742.98
735.00	730.02
736.00	733.99
737.00	731.50
738.00	727.57
739.00	713.44
740.00	707.08
741.00	712.21
742.00	683.95
743.00	701.89
744.00	693.05
745.00	700.12
746.00	690.35
747.00	664.07
748.00	671.93
749.00	673.85
750.00	662.09
751.00	659.43
752.00	643.40
753.00	647.63
754.00	654.78
755.00	640.20
756.00	642.02
757.00	635.40
758.00	631.95
759.00	639.63
760.00	637.57
761.00	621.46
762.00	616.58
763.00	619.31
764.00	618.94
765.00	620.89
766.00	610.28
767.00	613.38
768.00	611.28
769.00	601.34
770.00	605.38
771.00	606.69
772.00	607.23
773.00	594.85
774.00	589.40
775.00	591.17
776.00	580.22
777.00	586.58
778.00	577.02
779.00	580.45
780.00	571.71
781.00	571.99
782.00	581.69
783.00	575.67
784.00	573.57
785.00	578.48
786.00	576.43
787.00	589.63
788.00	577.29
789.00	574.00
790.00	580.46
791.00	584.49
792.00	589.48
793.00	585.40
794.00	600.40
795.00	584.38
796.00	598.09
797.00	598.39
798.00	601.09
799.00	599.25
800.00	588.73
801.00	598.34
802.00	603.12
803.00	593.99
804.00	587.59
805.00	575.05
806.00	582.23
807.00	569.88
808.00	575.71
809.00	574.72
810.00	561.87
811.00	555.26
812.00	559.25
813.00	555.23
814.00	551.26
815.00	548.22
816.00	548.93
817.00	533.22
818.00	538.29
819.00	527.66
820.00	519.19
821.00	516.91
822.00	512.15
823.00	511.30
824.00	500.46
825.00	491.51
826.00	497.12
827.00	490.34
828.00	487.60
829.00	476.77
830.00	476.82
831.00	469.85
832.00	468.82
833.00	460.85
834.00	461.38
835.00	452.60
836.00	454.56
837.00	454.17
838.00	444.34
839.00	441.93
840.00	435.37
841.00	430.62
842.00	430.63
843.00	424.69
844.00	426.12
845.00	416.50
846.00	425.06
847.00	422.49
848.00	410.04
849.00	409.91
850.00	401.07
851.00	402.99
852.00	398.41
853.00	395.44
854.00	395.28
855.00	381.25
856.00	391.32
857.00	391.86
858.00	382.51
859.00	378.05
860.00	365.27
861.00	378.76
862.00	367.97
863.00	374.40
864.00	360.13
865.00	361.86
866.00	367.68
867.00	368.70
868.00	357.01
869.00	357.66
870.00	356.86
871.00	351.86
872.00	357.03
873.00	342.55
874.00	340.99
875.00	337.06
876.00	339.58
877.00	336.62
878.00	335.68
879.00	330.33
880.00	334.84
881.00	325.01
882.00	328.04
883.00	324.33
884.00	326.00
885.00	322.97
886.00	322.29
887.00	325.40
888.00	320.74
889.00	313.35
890.00	318.62
891.00	319.80
892.00	314.40
893.00	312.08
894.00	308.03
895.00	310.11
896.00	311.48
897.00	311.48
898.00	314.40
899.00	307.27
900.00	314.10
901.00	308.86
902.00	302.11
903.00	313.48
904.00	315.71
905.00	316.20
906.00	313.24
907.00	318.66
908.00	312.20
909.00	312.09
910.00	311.84
911.00	311.10
912.00	315.19
913.00	308.27
914.00	299.85
915.00	306.10
916.00	302.79
917.00	308.36
918.00	309.28
919.00	304.89
920.00	300.37
921.00	301.70
922.00	300.55
923.00	292.24
924.00	291.61
925.00	291.18
926.00	292.01
927.00	292.56
928.00	285.74
929.00	285.87
930.00	278.18
931.00	287.69
932.00	280.93
933.00	273.67
934.00	268.05
935.00	266.52
936.00	262.49
937.00	262.00
938.00	256.34
939.00	248.89
940.00	250.24
941.00	237.71
942.00	238.05
943.00	232.02
944.00	230.80
945.00	230.86
946.00	229.32
947.00	232.99
948.00	227.47
949.00	229.13
950.00	227.73
951.00	227.87
952.00	227.96
953.00	234.85
954.00	233.11
955.00	225.47
956.00	231.85
957.00	223.54
958.00	233.00
959.00	228.94
960.00	230.26
961.00	230.14
962.00	231.06
963.00	226.42
964.00	231.70
965.00	231.55
966.00	229.29
967.00	231.93
968.00	229.04
969.00	227.80
970.00	228.43
971.00	227.76
972.00	226.06
973.00	222.77
974.00	225.11
975.00	229.11
976.00	221.79
977.00	221.05
978.00	222.27
979.00	222.05
980.00	218.82
981.00	219.86
982.00	222.89
983.00	216.65
984.00	221.42
985.00	219.58
986.00	216.87
987.00	229.04
988.00	219.48
989.00	214.28
990.00	219.31
991.00	213.57
992.00	216.30
993.00	214.84
994.00	210.35
995.00	211.02
996.00	211.56
997.00	210.71
998.00	210.86
999.00	213.61
1000.00	212.98
>>>>>End Processed Spectral Data<<<<<
