SpectraSuite Data File
++++++++++++++++++++++++++++++++++++
Date: Thu Oct 13 11:19:58 CDT 2011
User: Helimak
Dark Spectrum Present: No
Reference Spectrum Present: No
Number of Sampled Component Spectra: 1
Spectrometers: USB2G37154
Integration Time (usec): 20000 (USB2G37154)
Spectra Averaged: 1 (USB2G37154)
Boxcar Smoothing: 0 (USB2G37154)
Correct for Electrical Dark: No (USB2G37154)
Strobe/Lamp Enabled: No (USB2G37154)
Correct for Detector Non-linearity: No (USB2G37154)
Correct for Stray Light: No (USB2G37154)
Number of Pixels in Processed Spectrum: 651
>>>>>Begin Processed Spectral Data<<<<<
350.00	202.83
351.00	204.00
352.00	205.27
353.00	202.31
354.00	205.76
355.00	207.20
356.00	203.29
357.00	205.33
358.00	207.03
359.00	208.23
360.00	205.78
361.00	203.05
362.00	209.35
363.00	205.34
364.00	204.97
365.00	204.45
366.00	207.45
367.00	204.10
368.00	205.84
369.00	209.37
370.00	204.02
371.00	206.96
372.00	203.53
373.00	208.91
374.00	208.84
375.00	208.66
376.00	204.17
377.00	208.25
378.00	207.47
379.00	212.32
380.00	209.54
381.00	207.25
382.00	212.20
383.00	212.99
384.00	215.96
385.00	209.88
386.00	210.95
387.00	209.43
388.00	214.50
389.00	216.62
390.00	214.27
391.00	215.77
392.00	216.50
393.00	215.95
394.00	216.90
395.00	220.32
396.00	220.02
397.00	218.38
398.00	220.75
399.00	220.11
400.00	222.77
401.00	221.53
402.00	225.09
403.00	231.01
404.00	232.68
405.00	231.28
406.00	232.00
407.00	230.87
408.00	233.75
409.00	231.16
410.00	233.89
411.00	236.97
412.00	240.85
413.00	240.10
414.00	236.41
415.00	236.29
416.00	243.39
417.00	243.71
418.00	247.50
419.00	242.41
420.00	246.90
421.00	246.43
422.00	253.80
423.00	258.46
424.00	260.05
425.00	265.49
426.00	260.89
427.00	267.03
428.00	271.48
429.00	275.03
430.00	273.34
431.00	278.38
432.00	281.28
433.00	280.50
434.00	277.88
435.00	280.88
436.00	282.50
437.00	284.15
438.00	286.99
439.00	289.79
440.00	288.56
441.00	286.66
442.00	288.80
443.00	296.01
444.00	293.93
445.00	296.09
446.00	304.08
447.00	300.54
448.00	300.68
449.00	314.00
450.00	321.20
451.00	327.30
452.00	329.36
453.00	337.72
454.00	340.18
455.00	352.11
456.00	354.23
457.00	357.16
458.00	356.31
459.00	362.89
460.00	361.06
461.00	372.96
462.00	372.10
463.00	366.26
464.00	361.55
465.00	374.71
466.00	382.95
467.00	376.39
468.00	376.25
469.00	377.34
470.00	378.08
471.00	378.96
472.00	388.27
473.00	394.32
474.00	393.01
475.00	404.60
476.00	411.90
477.00	426.00
478.00	429.73
479.00	433.06
480.00	450.59
481.00	454.35
482.00	477.79
483.00	485.99
484.00	503.83
485.00	510.22
486.00	519.40
487.00	536.59
488.00	554.60
489.00	571.92
490.00	585.53
491.00	605.45
492.00	623.26
493.00	627.02
494.00	639.87
495.00	657.03
496.00	647.25
497.00	661.34
498.00	662.17
499.00	662.48
500.00	679.69
501.00	671.20
502.00	681.01
503.00	672.31
504.00	683.81
505.00	690.67
506.00	684.86
507.00	696.08
508.00	695.23
509.00	696.46
510.00	696.07
511.00	694.20
512.00	717.71
513.00	730.13
514.00	722.27
515.00	738.10
516.00	741.34
517.00	755.20
518.00	773.54
519.00	775.08
520.00	782.92
521.00	801.19
522.00	819.84
523.00	848.46
524.00	858.95
525.00	873.01
526.00	862.78
527.00	915.76
528.00	922.22
529.00	935.67
530.00	961.19
531.00	983.46
532.00	1015.73
533.00	1011.88
534.00	1040.99
535.00	1055.65
536.00	1064.88
537.00	1070.22
538.00	1097.62
539.00	1116.27
540.00	1121.87
541.00	1126.16
542.00	1126.24
543.00	1135.33
544.00	1146.17
545.00	1130.35
546.00	1137.67
547.00	1131.06
548.00	1140.63
549.00	1142.33
550.00	1135.67
551.00	1132.01
552.00	1134.86
553.00	1131.31
554.00	1153.63
555.00	1138.21
556.00	1152.26
557.00	1160.08
558.00	1181.32
559.00	1165.87
560.00	1177.98
561.00	1194.78
562.00	1214.33
563.00	1223.29
564.00	1221.04
565.00	1237.78
566.00	1250.69
567.00	1263.43
568.00	1287.45
569.00	1273.32
570.00	1288.64
571.00	1325.16
572.00	1334.87
573.00	1352.77
574.00	1383.51
575.00	1374.18
576.00	1387.35
577.00	1440.98
578.00	1430.82
579.00	1441.92
580.00	1467.13
581.00	1469.88
582.00	1470.93
583.00	1504.04
584.00	1519.40
585.00	1491.16
586.00	1514.12
587.00	1488.46
588.00	1521.60
589.00	1518.48
590.00	1518.71
591.00	1516.58
592.00	1513.05
593.00	1501.50
594.00	1520.99
595.00	1512.27
596.00	1510.90
597.00	1500.25
598.00	1505.08
599.00	1501.54
600.00	1500.30
601.00	1508.61
602.00	1496.95
603.00	1485.04
604.00	1492.04
605.00	1474.51
606.00	1489.68
607.00	1491.20
608.00	1493.84
609.00	1497.10
610.00	1500.47
611.00	1517.74
612.00	1508.94
613.00	1527.33
614.00	1514.51
615.00	1537.03
616.00	1535.42
617.00	1520.12
618.00	1556.85
619.00	1555.16
620.00	1549.00
621.00	1553.25
622.00	1571.10
623.00	1562.03
624.00	1591.92
625.00	1583.56
626.00	1587.01
627.00	1599.83
628.00	1635.31
629.00	1638.71
630.00	1620.67
631.00	1642.55
632.00	1617.14
633.00	1634.95
634.00	1632.15
635.00	1651.02
636.00	1644.51
637.00	1636.52
638.00	1641.39
639.00	1637.88
640.00	1634.77
641.00	1635.33
642.00	1635.08
643.00	1626.13
644.00	1618.07
645.00	1613.50
646.00	1595.50
647.00	1604.39
648.00	1571.15
649.00	1558.01
650.00	1564.91
651.00	1553.60
652.00	1527.35
653.00	1525.70
654.00	1522.03
655.00	1510.63
656.00	1497.54
657.00	1473.24
658.00	1493.99
659.00	1469.71
660.00	1481.23
661.00	1433.19
662.00	1438.48
663.00	1442.09
664.00	1418.40
665.00	1406.49
666.00	1407.63
667.00	1400.48
668.00	1395.69
669.00	1403.04
670.00	1385.26
671.00	1364.37
672.00	1376.11
673.00	1371.89
674.00	1356.54
675.00	1360.12
676.00	1359.66
677.00	1353.87
678.00	1369.90
679.00	1353.92
680.00	1348.45
681.00	1336.44
682.00	1342.44
683.00	1343.89
684.00	1338.15
685.00	1345.33
686.00	1334.58
687.00	1347.38
688.00	1350.59
689.00	1361.19
690.00	1363.64
691.00	1356.17
692.00	1370.15
693.00	1370.86
694.00	1377.32
695.00	1379.69
696.00	1358.00
697.00	1380.76
698.00	1375.86
699.00	1359.21
700.00	1375.17
701.00	1371.73
702.00	1362.27
703.00	1362.56
704.00	1358.27
705.00	1340.83
706.00	1333.71
707.00	1344.35
708.00	1333.77
709.00	1336.57
710.00	1336.46
711.00	1334.85
712.00	1329.11
713.00	1304.96
714.00	1283.43
715.00	1266.78
716.00	1253.78
717.00	1277.18
718.00	1249.88
719.00	1240.31
720.00	1208.90
721.00	1195.75
722.00	1192.32
723.00	1165.42
724.00	1150.73
725.00	1158.12
726.00	1147.49
727.00	1121.37
728.00	1115.38
729.00	1106.13
730.00	1101.88
731.00	1100.68
732.00	1086.95
733.00	1082.52
734.00	1068.59
735.00	1068.22
736.00	1036.65
737.00	1031.05
738.00	1053.43
739.00	1023.73
740.00	1014.20
741.00	1011.87
742.00	992.67
743.00	991.02
744.00	992.72
745.00	964.78
746.00	964.78
747.00	962.18
748.00	959.28
749.00	964.47
750.00	933.80
751.00	926.30
752.00	920.85
753.00	928.85
754.00	923.80
755.00	910.33
756.00	894.47
757.00	883.54
758.00	897.34
759.00	894.16
760.00	883.93
761.00	883.82
762.00	852.51
763.00	860.97
764.00	855.96
765.00	842.26
766.00	854.34
767.00	852.06
768.00	850.30
769.00	843.58
770.00	836.66
771.00	833.13
772.00	840.47
773.00	824.25
774.00	825.57
775.00	813.92
776.00	814.16
777.00	813.24
778.00	793.98
779.00	790.49
780.00	787.89
781.00	784.76
782.00	790.35
783.00	795.31
784.00	794.39
785.00	791.78
786.00	787.30
787.00	784.69
788.00	791.72
789.00	801.96
790.00	806.82
791.00	813.34
792.00	814.58
793.00	826.22
794.00	816.35
795.00	818.96
796.00	804.55
797.00	813.35
798.00	836.07
799.00	806.45
800.00	809.49
801.00	817.90
802.00	817.29
803.00	801.37
804.00	790.63
805.00	791.04
806.00	778.73
807.00	772.17
808.00	782.61
809.00	779.48
810.00	761.48
811.00	764.02
812.00	765.07
813.00	743.72
814.00	737.10
815.00	741.47
816.00	730.62
817.00	729.67
818.00	714.13
819.00	710.68
820.00	690.63
821.00	700.25
822.00	685.90
823.00	678.65
824.00	669.16
825.00	667.87
826.00	660.42
827.00	655.36
828.00	641.00
829.00	642.15
830.00	626.71
831.00	624.18
832.00	615.62
833.00	608.63
834.00	603.73
835.00	591.25
836.00	589.40
837.00	583.49
838.00	571.31
839.00	565.90
840.00	567.51
841.00	553.72
842.00	555.75
843.00	544.56
844.00	545.59
845.00	549.74
846.00	533.41
847.00	518.94
848.00	517.39
849.00	514.87
850.00	515.81
851.00	513.11
852.00	509.86
853.00	493.82
854.00	498.57
855.00	491.08
856.00	478.02
857.00	484.75
858.00	480.30
859.00	468.84
860.00	466.79
861.00	475.59
862.00	462.97
863.00	460.23
864.00	460.80
865.00	455.16
866.00	448.14
867.00	453.91
868.00	438.99
869.00	441.01
870.00	428.81
871.00	427.63
872.00	432.90
873.00	421.87
874.00	423.08
875.00	410.16
876.00	408.56
877.00	405.77
878.00	406.67
879.00	399.35
880.00	397.71
881.00	397.72
882.00	388.87
883.00	396.95
884.00	389.01
885.00	381.35
886.00	388.88
887.00	375.76
888.00	376.18
889.00	376.53
890.00	381.20
891.00	382.24
892.00	372.72
893.00	369.10
894.00	371.15
895.00	373.98
896.00	365.94
897.00	367.80
898.00	364.85
899.00	366.17
900.00	361.90
901.00	366.26
902.00	368.02
903.00	362.88
904.00	375.32
905.00	370.81
906.00	360.31
907.00	368.31
908.00	371.16
909.00	364.75
910.00	367.09
911.00	357.29
912.00	367.81
913.00	367.57
914.00	351.61
915.00	357.26
916.00	359.47
917.00	357.40
918.00	362.39
919.00	355.12
920.00	351.52
921.00	347.25
922.00	350.60
923.00	351.31
924.00	347.57
925.00	338.09
926.00	332.00
927.00	330.69
928.00	330.20
929.00	329.45
930.00	322.41
931.00	326.87
932.00	312.48
933.00	305.71
934.00	308.08
935.00	298.23
936.00	293.99
937.00	282.94
938.00	287.11
939.00	278.32
940.00	265.46
941.00	257.67
942.00	257.02
943.00	252.81
944.00	250.13
945.00	250.49
946.00	243.79
947.00	242.02
948.00	245.53
949.00	248.49
950.00	244.32
951.00	241.80
952.00	242.98
953.00	240.45
954.00	246.74
955.00	246.84
956.00	244.96
957.00	242.76
958.00	240.03
959.00	241.00
960.00	244.93
961.00	244.72
962.00	243.02
963.00	245.32
964.00	241.80
965.00	240.09
966.00	241.58
967.00	242.39
968.00	247.94
969.00	240.14
970.00	239.85
971.00	237.83
972.00	232.78
973.00	239.77
974.00	235.27
975.00	238.13
976.00	236.19
977.00	234.56
978.00	231.38
979.00	226.21
980.00	227.27
981.00	221.04
982.00	228.88
983.00	227.66
984.00	228.47
985.00	233.65
986.00	224.69
987.00	229.26
988.00	224.97
989.00	224.34
990.00	219.05
991.00	225.56
992.00	224.30
993.00	224.21
994.00	219.73
995.00	220.01
996.00	221.64
997.00	220.31
998.00	220.70
999.00	215.14
1000.00	219.06
>>>>>End Processed Spectral Data<<<<<
