SpectraSuite Data File
++++++++++++++++++++++++++++++++++++
Date: Thu Oct 13 11:28:16 CDT 2011
User: Helimak
Dark Spectrum Present: No
Reference Spectrum Present: No
Number of Sampled Component Spectra: 1
Spectrometers: USB2G37154
Integration Time (usec): 20000 (USB2G37154)
Spectra Averaged: 1 (USB2G37154)
Boxcar Smoothing: 0 (USB2G37154)
Correct for Electrical Dark: No (USB2G37154)
Strobe/Lamp Enabled: No (USB2G37154)
Correct for Detector Non-linearity: No (USB2G37154)
Correct for Stray Light: No (USB2G37154)
Number of Pixels in Processed Spectrum: 651
>>>>>Begin Processed Spectral Data<<<<<
350.00	199.73
351.00	197.04
352.00	199.24
353.00	200.35
354.00	204.07
355.00	204.36
356.00	202.54
357.00	200.63
358.00	206.06
359.00	203.98
360.00	202.97
361.00	206.74
362.00	201.68
363.00	202.29
364.00	200.88
365.00	201.71
366.00	202.41
367.00	202.09
368.00	207.50
369.00	201.07
370.00	201.97
371.00	208.41
372.00	201.45
373.00	202.33
374.00	204.70
375.00	207.69
376.00	208.28
377.00	207.26
378.00	203.23
379.00	205.70
380.00	207.83
381.00	208.34
382.00	201.57
383.00	206.05
384.00	206.93
385.00	210.36
386.00	208.03
387.00	205.39
388.00	207.95
389.00	209.55
390.00	213.61
391.00	209.09
392.00	210.55
393.00	211.50
394.00	211.10
395.00	205.81
396.00	211.90
397.00	211.18
398.00	212.01
399.00	209.88
400.00	211.93
401.00	212.31
402.00	210.85
403.00	216.27
404.00	215.29
405.00	215.25
406.00	215.00
407.00	218.49
408.00	221.63
409.00	217.78
410.00	221.17
411.00	221.15
412.00	218.16
413.00	220.05
414.00	217.31
415.00	219.65
416.00	220.75
417.00	226.39
418.00	223.08
419.00	224.31
420.00	227.00
421.00	224.05
422.00	226.48
423.00	235.97
424.00	228.95
425.00	232.46
426.00	230.42
427.00	241.99
428.00	235.97
429.00	240.20
430.00	241.97
431.00	237.37
432.00	239.19
433.00	241.20
434.00	239.78
435.00	240.16
436.00	241.78
437.00	243.40
438.00	247.52
439.00	249.85
440.00	245.31
441.00	237.45
442.00	245.99
443.00	245.63
444.00	248.29
445.00	247.94
446.00	250.23
447.00	257.65
448.00	251.70
449.00	257.96
450.00	261.22
451.00	264.81
452.00	263.51
453.00	268.11
454.00	272.23
455.00	275.14
456.00	281.55
457.00	278.36
458.00	278.65
459.00	288.93
460.00	284.41
461.00	281.41
462.00	297.28
463.00	283.85
464.00	287.77
465.00	284.70
466.00	292.68
467.00	289.15
468.00	287.97
469.00	296.58
470.00	297.52
471.00	305.14
472.00	307.95
473.00	300.04
474.00	310.31
475.00	307.96
476.00	312.38
477.00	316.16
478.00	321.49
479.00	318.59
480.00	329.79
481.00	326.86
482.00	342.82
483.00	349.19
484.00	357.83
485.00	363.41
486.00	371.48
487.00	383.65
488.00	394.47
489.00	402.81
490.00	401.47
491.00	415.80
492.00	421.65
493.00	437.74
494.00	436.13
495.00	438.63
496.00	436.45
497.00	448.52
498.00	454.60
499.00	447.23
500.00	447.14
501.00	464.11
502.00	454.00
503.00	463.35
504.00	460.72
505.00	453.75
506.00	469.81
507.00	465.03
508.00	455.44
509.00	475.32
510.00	468.65
511.00	464.06
512.00	479.18
513.00	483.92
514.00	480.49
515.00	485.22
516.00	500.01
517.00	495.98
518.00	501.16
519.00	509.27
520.00	522.37
521.00	534.74
522.00	530.56
523.00	543.18
524.00	552.64
525.00	553.24
526.00	576.41
527.00	584.20
528.00	588.72
529.00	611.13
530.00	614.82
531.00	635.73
532.00	640.14
533.00	645.72
534.00	662.17
535.00	672.90
536.00	673.17
537.00	684.90
538.00	697.23
539.00	696.29
540.00	692.48
541.00	709.80
542.00	696.24
543.00	710.04
544.00	711.14
545.00	713.89
546.00	718.27
547.00	724.20
548.00	715.94
549.00	728.56
550.00	718.08
551.00	719.00
552.00	728.86
553.00	723.00
554.00	730.34
555.00	734.45
556.00	724.56
557.00	734.89
558.00	743.29
559.00	749.35
560.00	751.39
561.00	750.26
562.00	759.19
563.00	758.17
564.00	773.31
565.00	782.53
566.00	799.37
567.00	795.37
568.00	816.16
569.00	810.40
570.00	829.32
571.00	828.99
572.00	843.79
573.00	859.86
574.00	859.65
575.00	868.16
576.00	880.42
577.00	897.44
578.00	900.42
579.00	906.01
580.00	918.91
581.00	932.76
582.00	947.93
583.00	952.11
584.00	934.37
585.00	939.11
586.00	957.13
587.00	941.23
588.00	950.14
589.00	964.16
590.00	953.02
591.00	950.18
592.00	956.39
593.00	962.08
594.00	959.01
595.00	941.40
596.00	937.82
597.00	963.82
598.00	948.97
599.00	950.55
600.00	942.85
601.00	945.02
602.00	945.16
603.00	937.99
604.00	949.73
605.00	956.05
606.00	951.72
607.00	956.76
608.00	948.70
609.00	930.98
610.00	954.17
611.00	959.20
612.00	967.04
613.00	970.71
614.00	954.13
615.00	984.52
616.00	986.12
617.00	973.94
618.00	980.04
619.00	990.01
620.00	1005.66
621.00	985.78
622.00	996.66
623.00	1009.55
624.00	1013.34
625.00	999.37
626.00	1019.09
627.00	1023.78
628.00	1036.57
629.00	1030.51
630.00	1051.53
631.00	1061.39
632.00	1048.01
633.00	1062.35
634.00	1060.32
635.00	1058.86
636.00	1076.17
637.00	1053.61
638.00	1045.92
639.00	1046.18
640.00	1055.12
641.00	1059.70
642.00	1032.79
643.00	1044.18
644.00	1035.27
645.00	1041.36
646.00	1027.95
647.00	1026.49
648.00	1029.72
649.00	1027.42
650.00	1014.48
651.00	1011.83
652.00	1005.21
653.00	1003.58
654.00	985.17
655.00	986.37
656.00	978.45
657.00	974.68
658.00	974.01
659.00	962.72
660.00	957.89
661.00	957.58
662.00	941.77
663.00	948.25
664.00	947.97
665.00	941.22
666.00	935.30
667.00	928.76
668.00	926.37
669.00	929.08
670.00	925.96
671.00	919.28
672.00	919.57
673.00	913.04
674.00	909.92
675.00	911.05
676.00	915.65
677.00	895.25
678.00	909.10
679.00	891.01
680.00	909.11
681.00	900.37
682.00	915.91
683.00	898.15
684.00	891.00
685.00	893.71
686.00	896.63
687.00	903.15
688.00	908.05
689.00	924.33
690.00	907.88
691.00	907.41
692.00	900.74
693.00	901.35
694.00	926.14
695.00	925.91
696.00	903.00
697.00	910.24
698.00	922.80
699.00	922.92
700.00	893.06
701.00	919.90
702.00	912.12
703.00	905.64
704.00	902.14
705.00	914.66
706.00	900.22
707.00	887.99
708.00	889.19
709.00	894.37
710.00	890.36
711.00	908.34
712.00	895.06
713.00	878.60
714.00	863.99
715.00	868.83
716.00	855.73
717.00	850.84
718.00	847.11
719.00	832.95
720.00	826.30
721.00	818.29
722.00	792.74
723.00	791.51
724.00	791.01
725.00	781.37
726.00	782.69
727.00	781.08
728.00	763.40
729.00	758.15
730.00	753.08
731.00	744.21
732.00	759.55
733.00	759.46
734.00	733.33
735.00	739.04
736.00	729.26
737.00	731.68
738.00	724.79
739.00	717.66
740.00	727.58
741.00	717.81
742.00	690.88
743.00	693.98
744.00	682.83
745.00	685.89
746.00	670.34
747.00	681.55
748.00	673.92
749.00	673.47
750.00	658.86
751.00	670.72
752.00	657.26
753.00	653.11
754.00	651.27
755.00	641.81
756.00	640.20
757.00	639.21
758.00	637.89
759.00	639.62
760.00	634.32
761.00	621.38
762.00	626.26
763.00	615.68
764.00	620.04
765.00	609.46
766.00	606.10
767.00	614.83
768.00	605.18
769.00	600.13
770.00	596.10
771.00	588.56
772.00	599.89
773.00	595.34
774.00	595.11
775.00	590.32
776.00	585.46
777.00	594.07
778.00	567.06
779.00	565.57
780.00	567.41
781.00	581.02
782.00	580.77
783.00	573.00
784.00	576.35
785.00	572.71
786.00	587.26
787.00	587.74
788.00	578.68
789.00	583.94
790.00	593.94
791.00	587.32
792.00	591.11
793.00	595.21
794.00	588.09
795.00	581.02
796.00	589.69
797.00	601.65
798.00	599.23
799.00	589.98
800.00	594.98
801.00	599.64
802.00	595.71
803.00	587.57
804.00	585.91
805.00	581.53
806.00	580.25
807.00	576.00
808.00	576.68
809.00	574.16
810.00	561.80
811.00	561.81
812.00	562.35
813.00	548.94
814.00	547.01
815.00	543.43
816.00	547.29
817.00	538.77
818.00	529.20
819.00	528.64
820.00	526.89
821.00	521.03
822.00	502.23
823.00	511.52
824.00	505.93
825.00	501.19
826.00	491.55
827.00	491.58
828.00	486.15
829.00	483.56
830.00	474.41
831.00	470.47
832.00	470.65
833.00	463.55
834.00	458.47
835.00	459.88
836.00	451.96
837.00	456.81
838.00	451.15
839.00	439.82
840.00	438.76
841.00	429.70
842.00	430.71
843.00	426.87
844.00	416.15
845.00	424.15
846.00	421.66
847.00	407.28
848.00	415.96
849.00	404.60
850.00	406.46
851.00	398.18
852.00	401.60
853.00	403.56
854.00	390.42
855.00	390.02
856.00	382.92
857.00	387.61
858.00	384.98
859.00	373.33
860.00	381.02
861.00	380.32
862.00	365.25
863.00	385.29
864.00	372.41
865.00	372.38
866.00	362.49
867.00	363.16
868.00	365.01
869.00	358.18
870.00	353.72
871.00	353.45
872.00	353.42
873.00	343.38
874.00	337.50
875.00	344.74
876.00	335.26
877.00	340.11
878.00	333.05
879.00	328.70
880.00	327.64
881.00	337.60
882.00	322.04
883.00	323.57
884.00	321.00
885.00	325.00
886.00	323.60
887.00	322.27
888.00	321.91
889.00	315.95
890.00	316.64
891.00	313.28
892.00	316.36
893.00	312.67
894.00	313.05
895.00	313.65
896.00	313.81
897.00	316.79
898.00	311.19
899.00	308.27
900.00	308.55
901.00	319.15
902.00	310.49
903.00	310.90
904.00	313.09
905.00	311.97
906.00	312.56
907.00	306.17
908.00	311.16
909.00	308.26
910.00	313.01
911.00	313.15
912.00	310.31
913.00	309.28
914.00	314.41
915.00	308.33
916.00	304.65
917.00	305.99
918.00	304.20
919.00	309.35
920.00	295.41
921.00	295.44
922.00	297.56
923.00	290.30
924.00	295.55
925.00	286.00
926.00	292.01
927.00	286.30
928.00	288.75
929.00	282.86
930.00	283.19
931.00	276.44
932.00	282.65
933.00	270.54
934.00	268.57
935.00	262.98
936.00	261.69
937.00	263.85
938.00	251.46
939.00	251.10
940.00	240.25
941.00	242.00
942.00	234.00
943.00	233.42
944.00	234.40
945.00	229.76
946.00	226.13
947.00	234.29
948.00	227.13
949.00	231.31
950.00	228.93
951.00	225.99
952.00	225.05
953.00	230.24
954.00	232.65
955.00	229.23
956.00	228.05
957.00	228.03
958.00	231.63
959.00	233.00
960.00	232.85
961.00	227.06
962.00	229.87
963.00	229.44
964.00	229.75
965.00	231.29
966.00	226.90
967.00	229.61
968.00	231.00
969.00	229.31
970.00	227.80
971.00	226.41
972.00	225.99
973.00	222.20
974.00	223.28
975.00	223.13
976.00	227.31
977.00	221.29
978.00	223.56
979.00	218.77
980.00	222.22
981.00	217.86
982.00	221.49
983.00	220.01
984.00	216.32
985.00	221.12
986.00	219.82
987.00	219.89
988.00	220.28
989.00	214.26
990.00	218.83
991.00	215.67
992.00	211.93
993.00	211.50
994.00	214.64
995.00	211.95
996.00	208.50
997.00	211.50
998.00	213.89
999.00	213.95
1000.00	214.18
>>>>>End Processed Spectral Data<<<<<
