SpectraSuite Data File
++++++++++++++++++++++++++++++++++++
Date: Thu Oct 13 11:28:16 CDT 2011
User: Helimak
Dark Spectrum Present: No
Reference Spectrum Present: No
Number of Sampled Component Spectra: 1
Spectrometers: USB2G37154
Integration Time (usec): 20000 (USB2G37154)
Spectra Averaged: 1 (USB2G37154)
Boxcar Smoothing: 0 (USB2G37154)
Correct for Electrical Dark: No (USB2G37154)
Strobe/Lamp Enabled: No (USB2G37154)
Correct for Detector Non-linearity: No (USB2G37154)
Correct for Stray Light: No (USB2G37154)
Number of Pixels in Processed Spectrum: 651
>>>>>Begin Processed Spectral Data<<<<<
350.00	200.77
351.00	202.11
352.00	197.41
353.00	204.70
354.00	203.45
355.00	203.13
356.00	204.75
357.00	203.83
358.00	202.25
359.00	205.11
360.00	202.97
361.00	201.13
362.00	201.93
363.00	203.22
364.00	201.05
365.00	204.57
366.00	211.56
367.00	200.85
368.00	205.14
369.00	205.08
370.00	205.96
371.00	205.63
372.00	206.20
373.00	206.92
374.00	204.60
375.00	203.45
376.00	206.97
377.00	208.46
378.00	207.51
379.00	205.57
380.00	206.05
381.00	204.60
382.00	208.47
383.00	202.90
384.00	208.36
385.00	206.27
386.00	206.98
387.00	208.00
388.00	205.17
389.00	204.41
390.00	209.22
391.00	209.91
392.00	208.69
393.00	205.15
394.00	209.45
395.00	211.88
396.00	211.01
397.00	215.44
398.00	207.64
399.00	214.30
400.00	213.99
401.00	214.52
402.00	214.31
403.00	215.11
404.00	212.15
405.00	216.84
406.00	215.99
407.00	214.86
408.00	217.68
409.00	217.06
410.00	221.54
411.00	215.51
412.00	213.87
413.00	222.36
414.00	225.47
415.00	220.94
416.00	220.18
417.00	223.40
418.00	224.27
419.00	220.41
420.00	228.05
421.00	223.75
422.00	226.16
423.00	232.32
424.00	228.20
425.00	234.94
426.00	228.68
427.00	233.83
428.00	235.16
429.00	240.94
430.00	237.81
431.00	238.70
432.00	237.27
433.00	240.15
434.00	245.12
435.00	245.64
436.00	243.15
437.00	241.05
438.00	239.40
439.00	244.15
440.00	238.60
441.00	244.50
442.00	246.56
443.00	252.33
444.00	246.98
445.00	243.74
446.00	250.74
447.00	254.14
448.00	253.70
449.00	257.91
450.00	257.50
451.00	265.50
452.00	265.77
453.00	267.03
454.00	271.34
455.00	279.37
456.00	279.53
457.00	282.79
458.00	278.65
459.00	283.91
460.00	280.23
461.00	284.73
462.00	289.56
463.00	285.20
464.00	285.38
465.00	291.61
466.00	293.59
467.00	294.08
468.00	286.42
469.00	297.97
470.00	295.35
471.00	295.37
472.00	296.88
473.00	296.97
474.00	304.49
475.00	302.51
476.00	308.47
477.00	307.11
478.00	314.16
479.00	323.35
480.00	331.83
481.00	344.69
482.00	340.01
483.00	344.33
484.00	356.69
485.00	349.93
486.00	374.84
487.00	378.01
488.00	385.06
489.00	392.06
490.00	405.50
491.00	411.54
492.00	416.58
493.00	418.17
494.00	431.22
495.00	436.86
496.00	431.39
497.00	444.64
498.00	445.19
499.00	445.34
500.00	452.03
501.00	450.16
502.00	464.00
503.00	458.49
504.00	458.76
505.00	451.82
506.00	462.59
507.00	461.28
508.00	461.59
509.00	466.67
510.00	462.35
511.00	464.08
512.00	477.95
513.00	477.68
514.00	488.93
515.00	477.48
516.00	481.14
517.00	499.62
518.00	506.53
519.00	507.58
520.00	520.77
521.00	529.57
522.00	535.05
523.00	531.56
524.00	547.37
525.00	558.29
526.00	570.44
527.00	579.38
528.00	585.27
529.00	599.59
530.00	607.12
531.00	609.27
532.00	621.01
533.00	632.96
534.00	648.70
535.00	661.72
536.00	658.73
537.00	680.69
538.00	692.68
539.00	681.55
540.00	696.17
541.00	698.22
542.00	710.49
543.00	694.24
544.00	700.34
545.00	708.80
546.00	710.54
547.00	709.57
548.00	698.35
549.00	701.86
550.00	702.42
551.00	716.97
552.00	734.54
553.00	720.95
554.00	722.47
555.00	723.32
556.00	724.57
557.00	725.13
558.00	732.30
559.00	724.28
560.00	738.01
561.00	749.31
562.00	759.66
563.00	757.42
564.00	769.03
565.00	764.71
566.00	776.00
567.00	800.40
568.00	797.32
569.00	811.42
570.00	799.47
571.00	822.40
572.00	833.59
573.00	847.40
574.00	852.55
575.00	862.17
576.00	876.34
577.00	868.42
578.00	872.96
579.00	890.35
580.00	902.79
581.00	919.06
582.00	930.24
583.00	928.70
584.00	932.18
585.00	930.42
586.00	941.85
587.00	945.85
588.00	942.04
589.00	937.13
590.00	943.90
591.00	948.42
592.00	932.23
593.00	950.59
594.00	934.96
595.00	936.15
596.00	947.81
597.00	938.62
598.00	934.92
599.00	937.36
600.00	930.24
601.00	948.26
602.00	935.11
603.00	932.31
604.00	948.00
605.00	948.25
606.00	929.50
607.00	948.47
608.00	939.87
609.00	938.00
610.00	941.10
611.00	948.67
612.00	961.72
613.00	958.60
614.00	963.14
615.00	957.94
616.00	967.78
617.00	972.00
618.00	974.21
619.00	967.96
620.00	987.36
621.00	998.58
622.00	993.25
623.00	990.94
624.00	997.79
625.00	1008.43
626.00	998.09
627.00	1009.82
628.00	1030.35
629.00	1031.41
630.00	1011.90
631.00	1036.09
632.00	1033.31
633.00	1034.20
634.00	1045.36
635.00	1036.02
636.00	1064.09
637.00	1036.43
638.00	1056.62
639.00	1037.05
640.00	1026.67
641.00	1040.58
642.00	1034.91
643.00	1039.06
644.00	1019.13
645.00	1023.70
646.00	1014.96
647.00	1024.37
648.00	1023.40
649.00	1016.92
650.00	1002.10
651.00	995.95
652.00	983.04
653.00	980.79
654.00	994.41
655.00	970.20
656.00	967.52
657.00	951.54
658.00	955.98
659.00	947.38
660.00	953.38
661.00	945.94
662.00	950.12
663.00	947.33
664.00	929.92
665.00	923.70
666.00	913.43
667.00	907.80
668.00	931.21
669.00	911.77
670.00	922.21
671.00	901.80
672.00	924.99
673.00	895.99
674.00	892.62
675.00	895.52
676.00	909.81
677.00	897.40
678.00	898.87
679.00	896.98
680.00	908.78
681.00	890.36
682.00	893.96
683.00	874.67
684.00	883.91
685.00	887.95
686.00	887.52
687.00	889.05
688.00	901.85
689.00	889.02
690.00	876.69
691.00	894.77
692.00	910.02
693.00	906.55
694.00	919.21
695.00	908.81
696.00	908.00
697.00	915.18
698.00	904.56
699.00	896.38
700.00	917.72
701.00	900.08
702.00	907.74
703.00	891.26
704.00	907.52
705.00	894.50
706.00	888.37
707.00	894.54
708.00	882.53
709.00	890.49
710.00	893.50
711.00	903.12
712.00	897.17
713.00	864.52
714.00	857.51
715.00	859.54
716.00	855.48
717.00	852.42
718.00	839.25
719.00	825.89
720.00	813.71
721.00	807.05
722.00	807.32
723.00	789.81
724.00	790.23
725.00	780.24
726.00	770.09
727.00	755.75
728.00	744.92
729.00	752.28
730.00	752.31
731.00	738.19
732.00	743.18
733.00	738.18
734.00	725.31
735.00	738.89
736.00	718.59
737.00	714.07
738.00	717.95
739.00	711.50
740.00	705.86
741.00	716.73
742.00	683.91
743.00	700.91
744.00	683.34
745.00	680.89
746.00	674.11
747.00	675.03
748.00	668.87
749.00	665.82
750.00	658.51
751.00	662.68
752.00	654.81
753.00	652.30
754.00	646.06
755.00	643.58
756.00	633.87
757.00	627.78
758.00	634.54
759.00	627.33
760.00	633.14
761.00	628.59
762.00	620.70
763.00	620.36
764.00	618.10
765.00	606.14
766.00	597.31
767.00	621.44
768.00	598.38
769.00	600.60
770.00	595.48
771.00	591.95
772.00	595.44
773.00	586.26
774.00	596.82
775.00	589.29
776.00	573.58
777.00	583.81
778.00	565.01
779.00	571.79
780.00	569.87
781.00	574.64
782.00	567.74
783.00	581.55
784.00	567.71
785.00	575.10
786.00	579.41
787.00	581.70
788.00	575.88
789.00	576.01
790.00	582.31
791.00	584.19
792.00	588.27
793.00	585.63
794.00	581.15
795.00	587.58
796.00	591.41
797.00	589.88
798.00	593.08
799.00	583.81
800.00	573.14
801.00	584.06
802.00	590.18
803.00	575.96
804.00	572.05
805.00	574.12
806.00	566.32
807.00	562.05
808.00	575.05
809.00	569.73
810.00	560.37
811.00	550.99
812.00	546.53
813.00	556.77
814.00	536.34
815.00	541.00
816.00	534.93
817.00	523.56
818.00	529.65
819.00	519.07
820.00	516.42
821.00	513.75
822.00	507.93
823.00	506.29
824.00	502.04
825.00	498.05
826.00	498.46
827.00	477.63
828.00	480.79
829.00	477.22
830.00	467.84
831.00	463.31
832.00	476.73
833.00	462.32
834.00	449.95
835.00	458.29
836.00	448.99
837.00	439.66
838.00	448.79
839.00	445.01
840.00	430.42
841.00	429.14
842.00	431.64
843.00	429.09
844.00	418.28
845.00	419.12
846.00	422.52
847.00	412.64
848.00	407.61
849.00	405.11
850.00	394.15
851.00	402.14
852.00	398.35
853.00	390.38
854.00	389.33
855.00	388.91
856.00	381.72
857.00	384.80
858.00	373.45
859.00	380.22
860.00	381.04
861.00	377.49
862.00	373.93
863.00	366.08
864.00	359.50
865.00	357.27
866.00	360.22
867.00	355.58
868.00	361.03
869.00	358.05
870.00	347.85
871.00	350.19
872.00	348.07
873.00	335.08
874.00	341.77
875.00	341.19
876.00	340.51
877.00	335.08
878.00	330.53
879.00	324.30
880.00	330.07
881.00	333.98
882.00	330.04
883.00	324.88
884.00	316.00
885.00	318.98
886.00	322.22
887.00	314.65
888.00	319.76
889.00	315.46
890.00	316.40
891.00	315.54
892.00	312.62
893.00	311.21
894.00	316.02
895.00	311.79
896.00	312.45
897.00	310.27
898.00	312.26
899.00	311.46
900.00	312.45
901.00	311.05
902.00	313.32
903.00	314.43
904.00	311.48
905.00	299.00
906.00	309.65
907.00	315.55
908.00	305.17
909.00	310.46
910.00	306.14
911.00	307.72
912.00	307.77
913.00	307.37
914.00	306.78
915.00	303.93
916.00	309.52
917.00	303.83
918.00	303.95
919.00	298.95
920.00	300.13
921.00	299.49
922.00	300.88
923.00	299.32
924.00	295.67
925.00	286.92
926.00	292.01
927.00	289.40
928.00	282.07
929.00	286.60
930.00	278.86
931.00	275.77
932.00	274.05
933.00	271.54
934.00	260.24
935.00	265.21
936.00	264.23
937.00	261.69
938.00	250.50
939.00	249.51
940.00	244.58
941.00	244.20
942.00	235.96
943.00	232.31
944.00	232.26
945.00	228.86
946.00	228.63
947.00	229.15
948.00	227.27
949.00	228.56
950.00	229.98
951.00	230.16
952.00	225.03
953.00	226.32
954.00	233.75
955.00	230.15
956.00	228.65
957.00	229.72
958.00	227.89
959.00	229.95
960.00	229.06
961.00	228.58
962.00	233.91
963.00	230.82
964.00	231.13
965.00	231.06
966.00	230.11
967.00	227.07
968.00	229.03
969.00	228.69
970.00	226.61
971.00	224.59
972.00	228.67
973.00	224.13
974.00	225.22
975.00	224.39
976.00	223.80
977.00	225.39
978.00	225.03
979.00	222.32
980.00	223.24
981.00	218.32
982.00	218.25
983.00	219.95
984.00	220.88
985.00	218.15
986.00	217.91
987.00	219.90
988.00	217.64
989.00	214.32
990.00	212.85
991.00	214.17
992.00	213.22
993.00	219.92
994.00	214.42
995.00	217.49
996.00	215.36
997.00	213.55
998.00	210.04
999.00	212.86
1000.00	216.97
>>>>>End Processed Spectral Data<<<<<
