SpectraSuite Data File
++++++++++++++++++++++++++++++++++++
Date: Tue Oct 18 14:49:23 CDT 2011
User: Helimak
Dark Spectrum Present: No
Reference Spectrum Present: No
Number of Sampled Component Spectra: 1
Spectrometers: USB2G37154
Integration Time (usec): 200000 (USB2G37154)
Spectra Averaged: 1 (USB2G37154)
Boxcar Smoothing: 0 (USB2G37154)
Correct for Electrical Dark: No (USB2G37154)
Strobe/Lamp Enabled: No (USB2G37154)
Correct for Detector Non-linearity: No (USB2G37154)
Correct for Stray Light: No (USB2G37154)
Number of Pixels in Processed Spectrum: 651
>>>>>Begin Processed Spectral Data<<<<<
350.00	200.36
351.00	205.01
352.00	199.65
353.00	203.09
354.00	203.93
355.00	210.16
356.00	206.59
357.00	203.53
358.00	208.18
359.00	204.68
360.00	206.52
361.00	205.06
362.00	210.01
363.00	207.27
364.00	209.84
365.00	206.60
366.00	206.28
367.00	206.83
368.00	204.46
369.00	208.60
370.00	207.02
371.00	209.47
372.00	211.71
373.00	209.66
374.00	211.59
375.00	212.17
376.00	213.12
377.00	219.50
378.00	220.61
379.00	219.23
380.00	221.45
381.00	212.21
382.00	226.71
383.00	227.87
384.00	227.58
385.00	231.31
386.00	234.96
387.00	235.88
388.00	228.45
389.00	223.37
390.00	220.24
391.00	227.17
392.00	229.41
393.00	226.26
394.00	234.20
395.00	227.46
396.00	227.95
397.00	222.61
398.00	223.49
399.00	230.90
400.00	249.43
401.00	259.80
402.00	259.46
403.00	267.18
404.00	274.19
405.00	258.89
406.00	268.02
407.00	278.74
408.00	249.72
409.00	251.63
410.00	256.01
411.00	241.76
412.00	244.47
413.00	244.14
414.00	239.07
415.00	297.62
416.00	268.53
417.00	254.89
418.00	279.67
419.00	378.95
420.00	322.83
421.00	260.52
422.00	285.87
423.00	263.86
424.00	254.24
425.00	343.69
426.00	393.86
427.00	391.75
428.00	311.78
429.00	302.82
430.00	287.33
431.00	267.73
432.00	318.04
433.00	372.21
434.00	724.52
435.00	463.17
436.00	334.84
437.00	322.93
438.00	282.18
439.00	331.36
440.00	308.65
441.00	300.79
442.00	499.52
443.00	348.89
444.00	269.71
445.00	251.17
446.00	239.35
447.00	262.70
448.00	259.08
449.00	253.16
450.00	271.13
451.00	271.52
452.00	273.41
453.00	282.49
454.00	347.81
455.00	302.43
456.00	296.85
457.00	325.75
458.00	408.50
459.00	348.49
460.00	484.53
461.00	378.05
462.00	294.54
463.00	268.66
464.00	258.77
465.00	311.02
466.00	285.84
467.00	261.88
468.00	262.02
469.00	261.70
470.00	266.00
471.00	272.05
472.00	336.14
473.00	348.77
474.00	290.70
475.00	271.21
476.00	354.74
477.00	280.24
478.00	250.34
479.00	270.14
480.00	551.60
481.00	349.54
482.00	283.60
483.00	266.32
484.00	322.22
485.00	352.20
486.00	360.61
487.00	694.42
488.00	572.73
489.00	366.82
490.00	301.99
491.00	287.47
492.00	287.18
493.00	298.75
494.00	273.17
495.00	265.64
496.00	336.87
497.00	295.74
498.00	270.36
499.00	274.77
500.00	323.18
501.00	356.73
502.00	297.04
503.00	270.98
504.00	301.42
505.00	323.85
506.00	324.01
507.00	322.55
508.00	312.38
509.00	294.58
510.00	276.54
511.00	271.01
512.00	265.29
513.00	277.55
514.00	338.11
515.00	291.80
516.00	287.05
517.00	275.91
518.00	299.57
519.00	283.00
520.00	261.95
521.00	266.81
522.00	270.54
523.00	260.43
524.00	264.74
525.00	276.12
526.00	266.85
527.00	264.18
528.00	257.88
529.00	258.12
530.00	254.29
531.00	257.50
532.00	267.26
533.00	279.21
534.00	279.63
535.00	291.11
536.00	278.74
537.00	282.93
538.00	276.73
539.00	271.61
540.00	269.96
541.00	268.07
542.00	274.87
543.00	275.18
544.00	279.03
545.00	292.32
546.00	281.47
547.00	289.72
548.00	280.29
549.00	317.25
550.00	309.74
551.00	290.00
552.00	278.07
553.00	276.15
554.00	268.13
555.00	291.11
556.00	299.45
557.00	287.23
558.00	260.53
559.00	259.38
560.00	287.15
561.00	266.21
562.00	254.92
563.00	248.76
564.00	261.72
565.00	271.28
566.00	269.11
567.00	268.88
568.00	274.17
569.00	269.85
570.00	265.78
571.00	263.33
572.00	248.88
573.00	255.52
574.00	272.57
575.00	254.17
576.00	250.42
577.00	256.70
578.00	259.62
579.00	252.84
580.00	259.75
581.00	243.04
582.00	243.98
583.00	252.42
584.00	248.05
585.00	244.18
586.00	253.42
587.00	253.18
588.00	274.05
589.00	286.58
590.00	257.90
591.00	259.53
592.00	256.52
593.00	261.59
594.00	241.03
595.00	246.69
596.00	240.79
597.00	244.48
598.00	246.86
599.00	258.49
600.00	253.58
601.00	262.21
602.00	262.77
603.00	389.54
604.00	344.57
605.00	296.33
606.00	278.25
607.00	245.95
608.00	239.51
609.00	234.93
610.00	255.58
611.00	286.85
612.00	267.44
613.00	250.51
614.00	245.11
615.00	251.02
616.00	249.59
617.00	287.92
618.00	251.81
619.00	254.03
620.00	242.13
621.00	256.29
622.00	244.44
623.00	234.54
624.00	252.59
625.00	254.58
626.00	250.96
627.00	242.33
628.00	246.93
629.00	248.67
630.00	255.84
631.00	254.35
632.00	236.65
633.00	229.88
634.00	225.91
635.00	228.98
636.00	227.90
637.00	237.87
638.00	240.67
639.00	236.18
640.00	243.31
641.00	256.18
642.00	272.07
643.00	246.00
644.00	238.36
645.00	236.96
646.00	245.03
647.00	244.77
648.00	237.03
649.00	233.71
650.00	227.34
651.00	226.28
652.00	224.92
653.00	232.26
654.00	232.11
655.00	232.65
656.00	372.07
657.00	335.57
658.00	266.98
659.00	233.06
660.00	230.91
661.00	224.96
662.00	222.62
663.00	218.32
664.00	252.33
665.00	250.47
666.00	232.69
667.00	230.05
668.00	238.64
669.00	240.93
670.00	223.45
671.00	223.88
672.00	223.79
673.00	225.96
674.00	223.91
675.00	265.20
676.00	275.25
677.00	227.64
678.00	221.34
679.00	220.13
680.00	217.91
681.00	222.21
682.00	219.17
683.00	220.75
684.00	224.00
685.00	221.97
686.00	220.36
687.00	245.53
688.00	241.63
689.00	237.57
690.00	218.98
691.00	219.77
692.00	210.74
693.00	225.24
694.00	245.40
695.00	235.06
696.00	273.01
697.00	427.92
698.00	281.31
699.00	233.40
700.00	224.45
701.00	223.58
702.00	222.48
703.00	260.97
704.00	248.05
705.00	230.45
706.00	225.29
707.00	360.48
708.00	269.16
709.00	231.34
710.00	220.79
711.00	225.73
712.00	215.75
713.00	216.99
714.00	216.50
715.00	246.76
716.00	229.80
717.00	215.32
718.00	213.48
719.00	206.06
720.00	213.93
721.00	223.70
722.00	214.93
723.00	216.14
724.00	219.02
725.00	235.11
726.00	215.64
727.00	234.55
728.00	253.35
729.00	223.44
730.00	220.21
731.00	215.70
732.00	217.59
733.00	213.89
734.00	211.16
735.00	222.93
736.00	237.74
737.00	245.95
738.00	308.28
739.00	405.66
740.00	271.73
741.00	230.13
742.00	221.07
743.00	217.00
744.00	220.99
745.00	219.89
746.00	212.67
747.00	211.80
748.00	211.50
749.00	217.32
750.00	287.29
751.00	750.96
752.00	589.20
753.00	338.62
754.00	236.94
755.00	212.89
756.00	211.34
757.00	215.66
758.00	217.34
759.00	218.07
760.00	208.97
761.00	214.06
762.00	215.85
763.00	257.92
764.00	1191.10
765.00	604.41
766.00	345.46
767.00	237.55
768.00	216.53
769.00	211.75
770.00	210.28
771.00	209.51
772.00	228.99
773.00	418.75
774.00	284.14
775.00	237.16
776.00	211.70
777.00	225.02
778.00	318.03
779.00	252.75
780.00	223.23
781.00	211.07
782.00	210.79
783.00	210.79
784.00	206.01
785.00	206.91
786.00	213.48
787.00	213.42
788.00	216.13
789.00	221.98
790.00	218.36
791.00	217.62
792.00	216.79
793.00	215.38
794.00	210.84
795.00	348.32
796.00	362.51
797.00	259.13
798.00	227.66
799.00	214.77
800.00	209.01
801.00	336.08
802.00	507.97
803.00	348.66
804.00	258.70
805.00	224.59
806.00	217.27
807.00	208.77
808.00	213.22
809.00	216.25
810.00	226.47
811.00	488.29
812.00	2333.70
813.00	1336.60
814.00	566.14
815.00	341.25
816.00	223.17
817.00	214.84
818.00	209.45
819.00	210.65
820.00	205.78
821.00	205.95
822.00	208.13
823.00	207.28
824.00	204.47
825.00	214.73
826.00	213.97
827.00	303.39
828.00	260.31
829.00	222.85
830.00	217.32
831.00	210.32
832.00	204.59
833.00	210.79
834.00	211.13
835.00	206.22
836.00	204.28
837.00	210.78
838.00	208.13
839.00	204.78
840.00	211.17
841.00	283.70
842.00	323.18
843.00	512.81
844.00	357.74
845.00	263.09
846.00	238.98
847.00	209.22
848.00	204.29
849.00	208.91
850.00	206.27
851.00	204.47
852.00	216.49
853.00	279.35
854.00	229.41
855.00	216.35
856.00	223.16
857.00	210.00
858.00	208.09
859.00	205.29
860.00	204.19
861.00	210.81
862.00	208.72
863.00	212.12
864.00	207.01
865.00	206.71
866.00	206.09
867.00	211.51
868.00	215.99
869.00	206.41
870.00	207.35
871.00	205.99
872.00	206.16
873.00	202.88
874.00	200.52
875.00	208.14
876.00	206.17
877.00	207.52
878.00	207.94
879.00	205.60
880.00	207.21
881.00	200.11
882.00	205.24
883.00	204.63
884.00	203.99
885.00	207.53
886.00	201.47
887.00	204.92
888.00	201.88
889.00	202.32
890.00	201.91
891.00	202.91
892.00	208.76
893.00	204.14
894.00	202.56
895.00	205.79
896.00	201.77
897.00	202.90
898.00	202.80
899.00	203.01
900.00	207.47
901.00	206.38
902.00	199.34
903.00	207.03
904.00	201.59
905.00	209.03
906.00	206.45
907.00	205.95
908.00	207.45
909.00	206.72
910.00	203.77
911.00	206.83
912.00	221.88
913.00	350.87
914.00	285.58
915.00	241.19
916.00	230.79
917.00	213.81
918.00	208.62
919.00	203.87
920.00	206.18
921.00	207.38
922.00	206.34
923.00	225.75
924.00	219.68
925.00	220.80
926.00	213.00
927.00	210.36
928.00	204.19
929.00	201.30
930.00	203.47
931.00	204.02
932.00	207.16
933.00	202.01
934.00	200.26
935.00	201.79
936.00	202.14
937.00	200.16
938.00	205.42
939.00	201.14
940.00	202.30
941.00	201.54
942.00	205.96
943.00	204.53
944.00	205.48
945.00	208.01
946.00	203.87
947.00	203.11
948.00	202.81
949.00	205.88
950.00	204.06
951.00	201.53
952.00	204.99
953.00	203.30
954.00	200.48
955.00	207.34
956.00	201.18
957.00	207.10
958.00	205.25
959.00	201.01
960.00	200.98
961.00	201.89
962.00	209.50
963.00	203.85
964.00	206.20
965.00	204.65
966.00	203.35
967.00	208.19
968.00	209.93
969.00	205.21
970.00	208.63
971.00	209.97
972.00	204.75
973.00	202.30
974.00	207.71
975.00	204.06
976.00	199.57
977.00	200.95
978.00	205.17
979.00	208.17
980.00	206.34
981.00	201.94
982.00	203.68
983.00	205.34
984.00	201.91
985.00	205.98
986.00	199.78
987.00	204.09
988.00	204.58
989.00	202.11
990.00	208.65
991.00	209.22
992.00	204.39
993.00	204.84
994.00	203.76
995.00	202.98
996.00	204.83
997.00	205.12
998.00	202.81
999.00	205.79
1000.00	202.03
>>>>>End Processed Spectral Data<<<<<
