SpectraSuite Data File
++++++++++++++++++++++++++++++++++++
Date: Tue Oct 18 14:47:30 CDT 2011
User: Helimak
Dark Spectrum Present: No
Reference Spectrum Present: No
Number of Sampled Component Spectra: 1
Spectrometers: USB2G37154
Integration Time (usec): 200000 (USB2G37154)
Spectra Averaged: 1 (USB2G37154)
Boxcar Smoothing: 0 (USB2G37154)
Correct for Electrical Dark: No (USB2G37154)
Strobe/Lamp Enabled: No (USB2G37154)
Correct for Detector Non-linearity: No (USB2G37154)
Correct for Stray Light: No (USB2G37154)
Number of Pixels in Processed Spectrum: 651
>>>>>Begin Processed Spectral Data<<<<<
350.00	203.71
351.00	207.87
352.00	203.93
353.00	205.12
354.00	203.04
355.00	205.01
356.00	208.62
357.00	208.61
358.00	210.93
359.00	208.60
360.00	207.75
361.00	208.93
362.00	210.63
363.00	211.23
364.00	211.75
365.00	210.31
366.00	213.83
367.00	213.85
368.00	214.87
369.00	212.85
370.00	210.04
371.00	213.09
372.00	217.83
373.00	221.91
374.00	218.11
375.00	217.88
376.00	220.92
377.00	221.25
378.00	234.40
379.00	231.34
380.00	240.61
381.00	232.22
382.00	235.50
383.00	240.83
384.00	245.99
385.00	248.28
386.00	248.00
387.00	248.13
388.00	242.25
389.00	231.45
390.00	233.08
391.00	240.33
392.00	250.93
393.00	250.37
394.00	256.69
395.00	242.74
396.00	243.97
397.00	240.39
398.00	236.73
399.00	250.00
400.00	286.36
401.00	306.18
402.00	291.78
403.00	313.09
404.00	322.91
405.00	290.49
406.00	329.08
407.00	337.77
408.00	282.28
409.00	293.24
410.00	295.27
411.00	261.71
412.00	271.56
413.00	271.26
414.00	262.41
415.00	353.03
416.00	320.39
417.00	289.14
418.00	331.66
419.00	513.76
420.00	404.67
421.00	294.58
422.00	354.05
423.00	315.17
424.00	290.45
425.00	438.13
426.00	549.77
427.00	545.60
428.00	390.60
429.00	363.95
430.00	348.96
431.00	302.34
432.00	380.24
433.00	498.21
434.00	1234.04
435.00	729.63
436.00	462.87
437.00	422.92
438.00	344.70
439.00	446.37
440.00	398.47
441.00	382.28
442.00	787.76
443.00	484.89
444.00	320.37
445.00	272.93
446.00	265.57
447.00	314.97
448.00	303.19
449.00	286.21
450.00	315.33
451.00	306.70
452.00	300.51
453.00	333.53
454.00	453.00
455.00	364.32
456.00	345.06
457.00	420.61
458.00	601.71
459.00	473.76
460.00	792.58
461.00	551.64
462.00	358.10
463.00	301.86
464.00	291.65
465.00	402.06
466.00	332.97
467.00	287.67
468.00	293.86
469.00	295.22
470.00	304.39
471.00	309.54
472.00	433.46
473.00	482.44
474.00	340.20
475.00	319.25
476.00	474.88
477.00	336.76
478.00	281.24
479.00	309.15
480.00	895.78
481.00	473.64
482.00	323.14
483.00	288.64
484.00	410.54
485.00	452.68
486.00	464.51
487.00	1167.40
488.00	931.63
489.00	497.79
490.00	364.21
491.00	331.69
492.00	333.48
493.00	362.23
494.00	303.15
495.00	309.35
496.00	446.02
497.00	353.57
498.00	301.52
499.00	302.32
500.00	400.91
501.00	486.92
502.00	348.06
503.00	306.35
504.00	347.78
505.00	396.31
506.00	417.97
507.00	385.51
508.00	367.78
509.00	337.52
510.00	311.69
511.00	299.04
512.00	306.19
513.00	323.65
514.00	443.54
515.00	354.52
516.00	335.33
517.00	304.23
518.00	346.33
519.00	325.97
520.00	284.07
521.00	294.67
522.00	308.42
523.00	285.39
524.00	289.27
525.00	301.49
526.00	293.53
527.00	281.46
528.00	287.14
529.00	278.14
530.00	280.01
531.00	286.83
532.00	299.83
533.00	309.79
534.00	310.84
535.00	322.25
536.00	308.91
537.00	310.89
538.00	313.17
539.00	302.11
540.00	301.42
541.00	302.90
542.00	312.15
543.00	306.88
544.00	314.65
545.00	334.38
546.00	323.68
547.00	335.43
548.00	311.58
549.00	380.57
550.00	367.09
551.00	336.97
552.00	317.34
553.00	307.27
554.00	300.34
555.00	340.17
556.00	353.79
557.00	329.07
558.00	282.03
559.00	290.49
560.00	324.83
561.00	304.05
562.00	283.92
563.00	266.72
564.00	286.18
565.00	311.62
566.00	297.12
567.00	293.99
568.00	307.10
569.00	302.51
570.00	291.37
571.00	289.89
572.00	266.74
573.00	278.51
574.00	292.47
575.00	266.55
576.00	266.32
577.00	285.13
578.00	277.42
579.00	272.37
580.00	273.42
581.00	255.24
582.00	254.42
583.00	277.12
584.00	264.64
585.00	259.47
586.00	266.46
587.00	276.26
588.00	308.18
589.00	330.34
590.00	283.01
591.00	286.99
592.00	276.25
593.00	288.28
594.00	270.02
595.00	256.35
596.00	256.17
597.00	267.09
598.00	271.07
599.00	273.87
600.00	281.99
601.00	292.26
602.00	295.42
603.00	493.52
604.00	431.13
605.00	338.66
606.00	315.99
607.00	263.58
608.00	247.25
609.00	245.86
610.00	280.54
611.00	343.54
612.00	319.21
613.00	267.70
614.00	266.78
615.00	274.80
616.00	269.31
617.00	358.88
618.00	283.05
619.00	271.06
620.00	259.01
621.00	282.88
622.00	267.69
623.00	251.85
624.00	279.50
625.00	289.23
626.00	269.86
627.00	263.38
628.00	259.07
629.00	269.64
630.00	277.73
631.00	277.01
632.00	251.18
633.00	243.41
634.00	239.72
635.00	236.97
636.00	243.89
637.00	246.65
638.00	252.23
639.00	248.32
640.00	261.19
641.00	276.49
642.00	310.58
643.00	262.19
644.00	255.36
645.00	246.10
646.00	257.12
647.00	252.41
648.00	255.93
649.00	250.07
650.00	238.52
651.00	238.05
652.00	237.31
653.00	238.47
654.00	248.29
655.00	243.50
656.00	472.40
657.00	431.96
658.00	299.98
659.00	247.64
660.00	245.48
661.00	235.93
662.00	228.73
663.00	228.03
664.00	295.49
665.00	289.35
666.00	248.35
667.00	241.57
668.00	262.62
669.00	267.94
670.00	237.64
671.00	229.61
672.00	233.24
673.00	235.02
674.00	232.19
675.00	307.34
676.00	325.07
677.00	250.32
678.00	229.32
679.00	230.70
680.00	222.90
681.00	223.08
682.00	225.76
683.00	221.67
684.00	230.20
685.00	227.42
686.00	225.45
687.00	282.76
688.00	268.05
689.00	259.20
690.00	234.83
691.00	226.66
692.00	226.58
693.00	234.21
694.00	270.54
695.00	259.98
696.00	313.02
697.00	566.71
698.00	322.39
699.00	254.31
700.00	235.40
701.00	232.72
702.00	227.41
703.00	294.48
704.00	279.05
705.00	236.73
706.00	231.51
707.00	451.06
708.00	310.79
709.00	247.13
710.00	215.05
711.00	231.69
712.00	227.80
713.00	223.82
714.00	221.08
715.00	253.92
716.00	236.95
717.00	228.52
718.00	223.02
719.00	215.49
720.00	216.99
721.00	228.67
722.00	223.59
723.00	226.44
724.00	225.26
725.00	238.88
726.00	224.50
727.00	244.04
728.00	284.81
729.00	235.18
730.00	221.84
731.00	221.17
732.00	224.41
733.00	219.00
734.00	220.17
735.00	222.64
736.00	249.39
737.00	277.95
738.00	374.94
739.00	533.38
740.00	314.03
741.00	248.44
742.00	228.95
743.00	225.11
744.00	240.00
745.00	231.32
746.00	213.97
747.00	214.90
748.00	213.86
749.00	224.42
750.00	348.23
751.00	1111.35
752.00	825.72
753.00	434.40
754.00	264.98
755.00	221.54
756.00	218.31
757.00	213.97
758.00	219.00
759.00	219.57
760.00	215.35
761.00	219.11
762.00	222.10
763.00	286.11
764.00	1812.25
765.00	862.45
766.00	433.13
767.00	255.43
768.00	218.26
769.00	213.77
770.00	213.19
771.00	212.28
772.00	239.85
773.00	546.51
774.00	330.99
775.00	256.23
776.00	215.23
777.00	237.61
778.00	392.05
779.00	284.82
780.00	239.90
781.00	213.77
782.00	213.00
783.00	203.25
784.00	210.45
785.00	215.52
786.00	216.60
787.00	219.63
788.00	214.03
789.00	224.99
790.00	232.58
791.00	216.88
792.00	220.97
793.00	216.83
794.00	218.61
795.00	451.46
796.00	461.38
797.00	294.57
798.00	247.60
799.00	217.97
800.00	217.65
801.00	419.39
802.00	705.87
803.00	437.63
804.00	290.17
805.00	234.26
806.00	220.99
807.00	214.84
808.00	214.78
809.00	221.18
810.00	236.42
811.00	648.33
812.00	3407.15
813.00	2048.77
814.00	782.59
815.00	410.02
816.00	235.56
817.00	218.06
818.00	213.94
819.00	208.24
820.00	210.40
821.00	206.01
822.00	211.24
823.00	211.27
824.00	206.31
825.00	215.58
826.00	209.93
827.00	358.19
828.00	291.72
829.00	242.51
830.00	220.17
831.00	209.70
832.00	208.88
833.00	205.70
834.00	209.02
835.00	211.76
836.00	207.64
837.00	211.17
838.00	206.51
839.00	211.02
840.00	210.83
841.00	324.52
842.00	391.80
843.00	699.23
844.00	460.95
845.00	312.80
846.00	262.78
847.00	216.89
848.00	208.21
849.00	209.57
850.00	209.94
851.00	203.02
852.00	219.61
853.00	315.72
854.00	241.12
855.00	224.64
856.00	217.86
857.00	206.24
858.00	204.67
859.00	206.29
860.00	201.34
861.00	215.20
862.00	209.61
863.00	201.35
864.00	211.73
865.00	212.78
866.00	207.81
867.00	217.41
868.00	222.01
869.00	211.88
870.00	209.44
871.00	209.19
872.00	210.88
873.00	204.21
874.00	208.65
875.00	211.61
876.00	211.48
877.00	208.55
878.00	205.79
879.00	203.74
880.00	206.01
881.00	206.90
882.00	207.79
883.00	203.09
884.00	203.99
885.00	205.04
886.00	208.13
887.00	202.59
888.00	201.24
889.00	206.33
890.00	205.13
891.00	206.90
892.00	209.93
893.00	205.55
894.00	203.13
895.00	205.97
896.00	203.53
897.00	203.73
898.00	204.36
899.00	203.31
900.00	204.74
901.00	200.75
902.00	201.31
903.00	211.48
904.00	203.86
905.00	203.96
906.00	211.16
907.00	204.61
908.00	206.36
909.00	205.35
910.00	208.66
911.00	208.86
912.00	233.93
913.00	435.48
914.00	332.87
915.00	277.58
916.00	242.76
917.00	223.21
918.00	209.44
919.00	205.45
920.00	208.69
921.00	211.56
922.00	208.88
923.00	236.85
924.00	231.28
925.00	222.28
926.00	215.00
927.00	211.77
928.00	204.04
929.00	200.91
930.00	205.67
931.00	204.89
932.00	204.36
933.00	203.82
934.00	204.33
935.00	199.85
936.00	202.89
937.00	204.79
938.00	202.48
939.00	205.55
940.00	200.48
941.00	206.85
942.00	210.00
943.00	202.86
944.00	199.78
945.00	208.64
946.00	204.19
947.00	205.06
948.00	202.61
949.00	197.41
950.00	204.75
951.00	201.42
952.00	204.03
953.00	201.09
954.00	201.93
955.00	207.08
956.00	201.39
957.00	205.57
958.00	204.13
959.00	204.93
960.00	204.23
961.00	201.07
962.00	204.14
963.00	205.16
964.00	205.80
965.00	200.81
966.00	205.73
967.00	215.12
968.00	208.02
969.00	211.18
970.00	209.22
971.00	209.70
972.00	206.43
973.00	201.45
974.00	208.03
975.00	201.00
976.00	204.88
977.00	202.80
978.00	202.98
979.00	204.34
980.00	200.32
981.00	200.23
982.00	206.60
983.00	203.91
984.00	202.89
985.00	205.62
986.00	200.38
987.00	203.70
988.00	205.21
989.00	205.36
990.00	203.58
991.00	201.58
992.00	204.90
993.00	204.33
994.00	200.96
995.00	207.61
996.00	204.01
997.00	211.31
998.00	204.08
999.00	203.54
1000.00	204.38
>>>>>End Processed Spectral Data<<<<<
