SpectraSuite Data File
++++++++++++++++++++++++++++++++++++
Date: Tue Oct 18 14:28:38 CDT 2011
User: Helimak
Dark Spectrum Present: No
Reference Spectrum Present: No
Number of Sampled Component Spectra: 1
Spectrometers: USB2G37154
Integration Time (usec): 200000 (USB2G37154)
Spectra Averaged: 1 (USB2G37154)
Boxcar Smoothing: 0 (USB2G37154)
Correct for Electrical Dark: No (USB2G37154)
Strobe/Lamp Enabled: No (USB2G37154)
Correct for Detector Non-linearity: No (USB2G37154)
Correct for Stray Light: No (USB2G37154)
Number of Pixels in Processed Spectrum: 651
>>>>>Begin Processed Spectral Data<<<<<
350.00	201.95
351.00	206.11
352.00	200.91
353.00	202.03
354.00	204.01
355.00	208.32
356.00	205.48
357.00	203.57
358.00	212.39
359.00	212.65
360.00	208.77
361.00	206.74
362.00	208.85
363.00	204.62
364.00	207.53
365.00	209.02
366.00	209.58
367.00	209.98
368.00	210.58
369.00	208.76
370.00	211.00
371.00	211.38
372.00	211.54
373.00	211.82
374.00	212.50
375.00	217.51
376.00	218.73
377.00	214.77
378.00	228.68
379.00	227.62
380.00	228.08
381.00	223.79
382.00	229.28
383.00	233.94
384.00	239.21
385.00	242.27
386.00	245.04
387.00	241.96
388.00	233.40
389.00	223.40
390.00	222.17
391.00	236.49
392.00	237.07
393.00	241.21
394.00	246.48
395.00	235.83
396.00	236.00
397.00	236.23
398.00	237.93
399.00	239.01
400.00	266.24
401.00	286.26
402.00	275.77
403.00	300.48
404.00	301.33
405.00	276.13
406.00	294.03
407.00	309.45
408.00	273.63
409.00	273.81
410.00	281.82
411.00	251.02
412.00	260.63
413.00	260.27
414.00	247.65
415.00	319.36
416.00	293.67
417.00	268.55
418.00	304.12
419.00	429.36
420.00	356.55
421.00	278.08
422.00	322.45
423.00	289.24
424.00	278.16
425.00	382.48
426.00	468.59
427.00	461.02
428.00	344.24
429.00	331.42
430.00	320.90
431.00	290.72
432.00	343.64
433.00	437.93
434.00	1040.19
435.00	634.03
436.00	416.07
437.00	384.78
438.00	317.58
439.00	405.08
440.00	360.61
441.00	349.59
442.00	664.17
443.00	441.52
444.00	299.58
445.00	258.86
446.00	258.49
447.00	291.66
448.00	287.26
449.00	269.99
450.00	290.59
451.00	291.99
452.00	285.94
453.00	310.24
454.00	399.33
455.00	332.22
456.00	320.37
457.00	378.68
458.00	504.11
459.00	417.69
460.00	637.79
461.00	479.30
462.00	331.43
463.00	290.34
464.00	281.07
465.00	364.52
466.00	315.22
467.00	286.76
468.00	278.09
469.00	282.67
470.00	277.41
471.00	279.83
472.00	387.76
473.00	423.71
474.00	316.88
475.00	298.21
476.00	418.50
477.00	311.06
478.00	272.32
479.00	297.01
480.00	769.98
481.00	431.35
482.00	313.46
483.00	282.66
484.00	382.84
485.00	404.67
486.00	411.82
487.00	975.40
488.00	783.10
489.00	436.15
490.00	338.14
491.00	308.34
492.00	310.99
493.00	332.51
494.00	299.67
495.00	302.24
496.00	402.38
497.00	330.95
498.00	293.03
499.00	285.53
500.00	376.95
501.00	432.26
502.00	327.04
503.00	296.74
504.00	318.27
505.00	360.57
506.00	378.88
507.00	362.20
508.00	343.21
509.00	315.82
510.00	302.71
511.00	292.07
512.00	295.37
513.00	313.03
514.00	407.78
515.00	322.57
516.00	310.67
517.00	292.10
518.00	321.39
519.00	299.28
520.00	278.10
521.00	276.58
522.00	284.03
523.00	277.97
524.00	284.75
525.00	294.81
526.00	288.19
527.00	279.63
528.00	277.37
529.00	273.37
530.00	264.18
531.00	276.24
532.00	293.63
533.00	302.34
534.00	304.85
535.00	301.14
536.00	308.47
537.00	295.33
538.00	297.16
539.00	294.23
540.00	291.07
541.00	291.39
542.00	289.45
543.00	286.48
544.00	297.79
545.00	308.97
546.00	313.65
547.00	325.06
548.00	299.65
549.00	351.45
550.00	340.72
551.00	313.93
552.00	298.25
553.00	294.04
554.00	294.43
555.00	315.98
556.00	327.22
557.00	305.40
558.00	279.50
559.00	271.57
560.00	303.33
561.00	282.31
562.00	270.66
563.00	269.43
564.00	273.84
565.00	296.88
566.00	282.96
567.00	291.59
568.00	298.04
569.00	293.36
570.00	292.70
571.00	289.71
572.00	262.89
573.00	272.78
574.00	283.30
575.00	263.89
576.00	266.94
577.00	277.44
578.00	269.61
579.00	262.16
580.00	266.79
581.00	255.23
582.00	251.01
583.00	262.72
584.00	257.98
585.00	252.80
586.00	268.17
587.00	267.22
588.00	290.49
589.00	303.04
590.00	269.69
591.00	277.79
592.00	270.44
593.00	279.63
594.00	264.03
595.00	247.67
596.00	247.78
597.00	251.62
598.00	261.86
599.00	268.14
600.00	275.30
601.00	277.18
602.00	290.22
603.00	431.74
604.00	380.36
605.00	322.49
606.00	293.29
607.00	259.41
608.00	248.82
609.00	247.02
610.00	274.43
611.00	318.47
612.00	302.18
613.00	257.69
614.00	259.47
615.00	261.77
616.00	261.33
617.00	319.86
618.00	273.25
619.00	268.07
620.00	252.32
621.00	275.90
622.00	254.76
623.00	239.84
624.00	264.54
625.00	274.35
626.00	261.10
627.00	256.96
628.00	258.56
629.00	264.87
630.00	269.17
631.00	269.20
632.00	246.45
633.00	244.54
634.00	233.43
635.00	239.05
636.00	238.76
637.00	244.21
638.00	247.30
639.00	248.54
640.00	253.53
641.00	264.45
642.00	294.34
643.00	261.91
644.00	243.50
645.00	246.01
646.00	255.79
647.00	252.19
648.00	254.01
649.00	243.79
650.00	231.25
651.00	236.29
652.00	235.58
653.00	236.92
654.00	246.32
655.00	239.22
656.00	422.05
657.00	382.81
658.00	286.98
659.00	238.50
660.00	243.55
661.00	232.42
662.00	228.05
663.00	226.06
664.00	276.96
665.00	273.69
666.00	240.06
667.00	242.80
668.00	253.00
669.00	256.17
670.00	232.71
671.00	226.32
672.00	227.04
673.00	227.00
674.00	224.88
675.00	288.13
676.00	291.05
677.00	247.21
678.00	225.51
679.00	226.41
680.00	222.24
681.00	227.55
682.00	229.35
683.00	226.01
684.00	226.46
685.00	228.96
686.00	228.04
687.00	260.21
688.00	255.55
689.00	249.59
690.00	225.50
691.00	225.92
692.00	221.28
693.00	226.07
694.00	260.42
695.00	247.89
696.00	293.02
697.00	500.08
698.00	300.30
699.00	257.44
700.00	233.60
701.00	228.35
702.00	227.48
703.00	279.67
704.00	267.69
705.00	235.07
706.00	229.98
707.00	398.58
708.00	288.28
709.00	236.99
710.00	218.72
711.00	227.08
712.00	220.30
713.00	217.56
714.00	221.46
715.00	244.96
716.00	234.51
717.00	221.97
718.00	217.76
719.00	214.37
720.00	219.44
721.00	225.26
722.00	222.03
723.00	224.04
724.00	222.88
725.00	245.70
726.00	222.58
727.00	242.74
728.00	267.30
729.00	234.39
730.00	222.32
731.00	223.31
732.00	225.32
733.00	216.88
734.00	216.79
735.00	225.58
736.00	241.71
737.00	263.50
738.00	337.87
739.00	468.71
740.00	290.25
741.00	236.39
742.00	225.05
743.00	228.00
744.00	233.93
745.00	227.56
746.00	219.65
747.00	214.51
748.00	220.31
749.00	226.16
750.00	321.54
751.00	926.31
752.00	709.87
753.00	381.64
754.00	254.73
755.00	216.49
756.00	217.20
757.00	215.53
758.00	217.45
759.00	219.63
760.00	218.91
761.00	217.57
762.00	221.78
763.00	274.07
764.00	1497.62
765.00	722.69
766.00	389.32
767.00	243.94
768.00	218.70
769.00	212.76
770.00	213.06
771.00	216.62
772.00	232.83
773.00	478.27
774.00	310.26
775.00	252.92
776.00	213.56
777.00	238.61
778.00	394.05
779.00	277.50
780.00	232.17
781.00	215.51
782.00	210.61
783.00	211.03
784.00	209.92
785.00	212.88
786.00	215.74
787.00	213.32
788.00	215.95
789.00	222.97
790.00	230.03
791.00	222.25
792.00	220.98
793.00	216.43
794.00	219.74
795.00	402.74
796.00	421.54
797.00	282.23
798.00	241.66
799.00	220.49
800.00	215.53
801.00	386.49
802.00	624.23
803.00	397.10
804.00	274.87
805.00	224.31
806.00	222.28
807.00	213.92
808.00	217.78
809.00	220.37
810.00	229.96
811.00	574.60
812.00	2939.16
813.00	1713.44
814.00	682.60
815.00	381.53
816.00	226.75
817.00	215.42
818.00	209.77
819.00	214.52
820.00	208.68
821.00	206.01
822.00	210.05
823.00	210.33
824.00	210.97
825.00	217.30
826.00	214.69
827.00	334.74
828.00	273.87
829.00	230.83
830.00	219.90
831.00	212.24
832.00	207.30
833.00	207.08
834.00	208.31
835.00	208.11
836.00	208.02
837.00	207.81
838.00	204.74
839.00	214.00
840.00	213.02
841.00	312.32
842.00	355.72
843.00	610.85
844.00	408.17
845.00	298.51
846.00	254.81
847.00	216.57
848.00	212.74
849.00	209.29
850.00	203.31
851.00	208.10
852.00	221.90
853.00	304.67
854.00	235.23
855.00	220.38
856.00	218.18
857.00	209.46
858.00	207.88
859.00	205.12
860.00	206.89
861.00	211.77
862.00	210.84
863.00	207.71
864.00	208.21
865.00	210.94
866.00	205.18
867.00	214.90
868.00	217.97
869.00	215.37
870.00	209.40
871.00	206.05
872.00	209.81
873.00	208.90
874.00	205.09
875.00	205.36
876.00	208.22
877.00	208.93
878.00	206.55
879.00	205.64
880.00	205.97
881.00	203.90
882.00	205.40
883.00	205.33
884.00	208.00
885.00	206.52
886.00	204.68
887.00	201.96
888.00	204.99
889.00	202.42
890.00	204.62
891.00	206.26
892.00	206.26
893.00	207.44
894.00	206.00
895.00	210.97
896.00	202.82
897.00	202.07
898.00	205.97
899.00	200.46
900.00	205.24
901.00	204.05
902.00	204.53
903.00	212.34
904.00	206.23
905.00	203.96
906.00	211.20
907.00	207.34
908.00	205.48
909.00	203.78
910.00	208.91
911.00	209.18
912.00	233.36
913.00	395.22
914.00	315.07
915.00	261.85
916.00	238.29
917.00	221.28
918.00	207.95
919.00	201.80
920.00	206.66
921.00	210.13
922.00	210.66
923.00	224.02
924.00	225.37
925.00	219.70
926.00	215.01
927.00	210.85
928.00	206.24
929.00	206.88
930.00	206.45
931.00	206.95
932.00	205.17
933.00	203.69
934.00	202.23
935.00	202.77
936.00	203.76
937.00	203.05
938.00	203.95
939.00	202.56
940.00	204.49
941.00	206.74
942.00	204.98
943.00	202.73
944.00	204.81
945.00	207.93
946.00	206.15
947.00	204.20
948.00	202.72
949.00	203.21
950.00	202.42
951.00	200.69
952.00	200.98
953.00	206.32
954.00	202.75
955.00	205.10
956.00	206.63
957.00	204.71
958.00	204.40
959.00	202.95
960.00	205.61
961.00	202.22
962.00	208.75
963.00	202.18
964.00	204.68
965.00	206.57
966.00	203.29
967.00	210.82
968.00	206.99
969.00	210.60
970.00	208.33
971.00	205.56
972.00	202.23
973.00	209.16
974.00	204.82
975.00	202.78
976.00	207.45
977.00	203.60
978.00	203.35
979.00	205.33
980.00	203.65
981.00	203.07
982.00	204.85
983.00	206.77
984.00	200.88
985.00	203.89
986.00	204.52
987.00	205.33
988.00	208.46
989.00	203.85
990.00	202.76
991.00	205.62
992.00	202.10
993.00	210.86
994.00	201.81
995.00	205.26
996.00	204.28
997.00	203.89
998.00	202.36
999.00	201.92
1000.00	204.77
>>>>>End Processed Spectral Data<<<<<
