SpectraSuite Data File
++++++++++++++++++++++++++++++++++++
Date: Tue Oct 18 14:51:55 CDT 2011
User: Helimak
Dark Spectrum Present: No
Reference Spectrum Present: No
Number of Sampled Component Spectra: 1
Spectrometers: USB2G37154
Integration Time (usec): 200000 (USB2G37154)
Spectra Averaged: 1 (USB2G37154)
Boxcar Smoothing: 0 (USB2G37154)
Correct for Electrical Dark: No (USB2G37154)
Strobe/Lamp Enabled: No (USB2G37154)
Correct for Detector Non-linearity: No (USB2G37154)
Correct for Stray Light: No (USB2G37154)
Number of Pixels in Processed Spectrum: 651
>>>>>Begin Processed Spectral Data<<<<<
350.00	199.47
351.00	201.45
352.00	204.79
353.00	202.69
354.00	201.01
355.00	204.47
356.00	209.14
357.00	199.87
358.00	207.95
359.00	201.03
360.00	206.92
361.00	201.17
362.00	206.96
363.00	203.83
364.00	208.19
365.00	207.46
366.00	201.42
367.00	205.95
368.00	203.28
369.00	207.81
370.00	204.93
371.00	207.13
372.00	210.61
373.00	210.10
374.00	210.16
375.00	211.74
376.00	212.48
377.00	213.08
378.00	214.71
379.00	216.98
380.00	219.88
381.00	216.63
382.00	217.00
383.00	221.84
384.00	226.00
385.00	227.07
386.00	226.04
387.00	228.03
388.00	224.22
389.00	219.04
390.00	218.63
391.00	219.03
392.00	225.86
393.00	227.97
394.00	230.55
395.00	223.50
396.00	222.00
397.00	222.67
398.00	217.21
399.00	230.36
400.00	238.71
401.00	250.84
402.00	244.84
403.00	257.94
404.00	256.42
405.00	246.23
406.00	250.02
407.00	261.66
408.00	239.83
409.00	245.00
410.00	246.72
411.00	232.46
412.00	233.51
413.00	234.09
414.00	234.62
415.00	277.81
416.00	261.43
417.00	254.56
418.00	264.69
419.00	350.49
420.00	300.08
421.00	248.62
422.00	266.05
423.00	253.60
424.00	247.28
425.00	315.94
426.00	350.49
427.00	351.65
428.00	294.85
429.00	284.62
430.00	276.75
431.00	258.63
432.00	289.86
433.00	336.76
434.00	577.66
435.00	411.28
436.00	313.35
437.00	294.81
438.00	263.86
439.00	305.23
440.00	280.00
441.00	283.61
442.00	417.60
443.00	318.60
444.00	262.98
445.00	239.01
446.00	239.75
447.00	252.75
448.00	246.85
449.00	247.88
450.00	261.38
451.00	268.63
452.00	263.91
453.00	270.39
454.00	309.64
455.00	281.29
456.00	278.84
457.00	302.24
458.00	360.03
459.00	322.42
460.00	423.21
461.00	343.43
462.00	281.04
463.00	258.87
464.00	251.51
465.00	290.19
466.00	270.56
467.00	248.18
468.00	256.83
469.00	257.64
470.00	258.25
471.00	257.88
472.00	301.95
473.00	320.52
474.00	271.34
475.00	258.50
476.00	320.49
477.00	263.90
478.00	253.31
479.00	255.15
480.00	459.89
481.00	319.76
482.00	267.95
483.00	256.79
484.00	300.68
485.00	324.93
486.00	342.37
487.00	576.57
488.00	488.72
489.00	343.55
490.00	291.30
491.00	282.93
492.00	279.67
493.00	281.92
494.00	271.54
495.00	267.46
496.00	311.08
497.00	280.85
498.00	261.36
499.00	263.82
500.00	304.64
501.00	317.56
502.00	278.04
503.00	268.76
504.00	292.63
505.00	303.14
506.00	311.20
507.00	308.62
508.00	296.76
509.00	288.59
510.00	269.55
511.00	267.00
512.00	267.61
513.00	269.37
514.00	313.69
515.00	278.91
516.00	278.64
517.00	265.77
518.00	289.86
519.00	273.63
520.00	259.08
521.00	260.95
522.00	266.32
523.00	255.45
524.00	259.62
525.00	272.11
526.00	261.53
527.00	253.00
528.00	255.17
529.00	252.21
530.00	252.91
531.00	257.45
532.00	269.42
533.00	269.54
534.00	271.78
535.00	280.97
536.00	276.68
537.00	275.39
538.00	269.85
539.00	267.17
540.00	268.05
541.00	263.47
542.00	266.45
543.00	265.25
544.00	272.13
545.00	278.20
546.00	282.59
547.00	292.68
548.00	275.35
549.00	309.82
550.00	299.39
551.00	281.98
552.00	269.52
553.00	266.14
554.00	266.03
555.00	282.37
556.00	294.92
557.00	275.25
558.00	257.02
559.00	256.68
560.00	276.04
561.00	265.29
562.00	251.22
563.00	244.83
564.00	251.23
565.00	268.47
566.00	265.78
567.00	267.66
568.00	270.28
569.00	262.33
570.00	267.01
571.00	265.72
572.00	248.94
573.00	248.31
574.00	254.74
575.00	242.24
576.00	243.55
577.00	249.38
578.00	250.13
579.00	245.64
580.00	246.90
581.00	243.11
582.00	246.75
583.00	239.72
584.00	240.90
585.00	240.06
586.00	246.16
587.00	248.06
588.00	257.48
589.00	276.36
590.00	254.75
591.00	258.92
592.00	245.79
593.00	249.61
594.00	243.03
595.00	237.23
596.00	234.22
597.00	234.94
598.00	245.45
599.00	254.00
600.00	252.76
601.00	258.16
602.00	263.28
603.00	363.01
604.00	324.68
605.00	283.41
606.00	265.51
607.00	238.63
608.00	233.46
609.00	232.96
610.00	244.09
611.00	268.68
612.00	263.57
613.00	243.52
614.00	244.26
615.00	245.40
616.00	246.91
617.00	276.96
618.00	247.84
619.00	253.19
620.00	235.78
621.00	257.92
622.00	243.61
623.00	230.45
624.00	245.26
625.00	255.79
626.00	243.20
627.00	244.91
628.00	246.04
629.00	242.53
630.00	248.37
631.00	253.23
632.00	232.80
633.00	232.08
634.00	223.90
635.00	227.06
636.00	229.40
637.00	234.70
638.00	233.28
639.00	232.40
640.00	241.41
641.00	247.82
642.00	269.08
643.00	240.13
644.00	235.03
645.00	229.98
646.00	239.99
647.00	233.19
648.00	232.46
649.00	234.55
650.00	227.68
651.00	225.58
652.00	225.57
653.00	227.57
654.00	237.05
655.00	228.98
656.00	343.25
657.00	323.33
658.00	256.99
659.00	227.25
660.00	224.61
661.00	223.79
662.00	219.31
663.00	218.64
664.00	242.42
665.00	242.31
666.00	230.96
667.00	228.46
668.00	235.20
669.00	234.95
670.00	220.86
671.00	217.16
672.00	221.54
673.00	222.01
674.00	222.11
675.00	258.34
676.00	265.90
677.00	233.12
678.00	215.28
679.00	217.63
680.00	216.91
681.00	217.96
682.00	218.25
683.00	215.47
684.00	221.88
685.00	222.43
686.00	217.14
687.00	238.96
688.00	236.72
689.00	231.00
690.00	224.82
691.00	218.35
692.00	217.59
693.00	217.59
694.00	240.42
695.00	238.88
696.00	260.01
697.00	398.84
698.00	268.30
699.00	238.01
700.00	224.49
701.00	223.47
702.00	220.02
703.00	251.11
704.00	243.47
705.00	224.75
706.00	220.74
707.00	327.98
708.00	258.77
709.00	233.32
710.00	211.38
711.00	216.24
712.00	218.09
713.00	217.78
714.00	215.02
715.00	231.36
716.00	221.21
717.00	212.16
718.00	214.17
719.00	212.75
720.00	211.62
721.00	218.76
722.00	215.20
723.00	216.01
724.00	215.79
725.00	232.98
726.00	217.72
727.00	230.09
728.00	247.74
729.00	221.57
730.00	218.14
731.00	211.01
732.00	219.09
733.00	209.07
734.00	212.60
735.00	221.72
736.00	228.85
737.00	242.95
738.00	296.22
739.00	373.38
740.00	259.84
741.00	229.09
742.00	220.00
743.00	216.04
744.00	221.05
745.00	224.84
746.00	210.16
747.00	213.05
748.00	210.47
749.00	215.48
750.00	272.26
751.00	651.83
752.00	532.99
753.00	320.69
754.00	234.37
755.00	215.25
756.00	208.79
757.00	208.60
758.00	215.65
759.00	212.78
760.00	212.68
761.00	210.59
762.00	213.59
763.00	248.12
764.00	1016.13
765.00	531.46
766.00	319.19
767.00	230.95
768.00	212.34
769.00	211.27
770.00	208.08
771.00	207.25
772.00	217.80
773.00	377.07
774.00	270.90
775.00	237.09
776.00	209.89
777.00	222.43
778.00	306.01
779.00	249.24
780.00	221.96
781.00	204.65
782.00	206.18
783.00	207.36
784.00	206.75
785.00	209.10
786.00	209.97
787.00	212.33
788.00	216.78
789.00	218.95
790.00	221.84
791.00	219.28
792.00	213.59
793.00	214.17
794.00	209.86
795.00	332.85
796.00	337.58
797.00	254.78
798.00	226.51
799.00	211.61
800.00	212.37
801.00	319.00
802.00	458.38
803.00	331.23
804.00	245.75
805.00	216.51
806.00	211.86
807.00	207.96
808.00	213.90
809.00	216.61
810.00	221.60
811.00	440.33
812.00	1988.53
813.00	1180.45
814.00	524.12
815.00	329.79
816.00	218.02
817.00	214.24
818.00	209.93
819.00	206.88
820.00	206.56
821.00	205.94
822.00	203.94
823.00	204.42
824.00	204.22
825.00	212.49
826.00	208.78
827.00	292.25
828.00	250.05
829.00	220.19
830.00	209.05
831.00	205.54
832.00	203.85
833.00	209.72
834.00	208.33
835.00	207.91
836.00	205.11
837.00	206.33
838.00	207.56
839.00	207.96
840.00	207.88
841.00	268.71
842.00	303.27
843.00	464.67
844.00	334.26
845.00	260.54
846.00	229.95
847.00	211.61
848.00	204.60
849.00	204.87
850.00	204.09
851.00	205.39
852.00	209.95
853.00	267.03
854.00	225.03
855.00	214.35
856.00	214.89
857.00	205.35
858.00	208.68
859.00	207.02
860.00	203.70
861.00	212.65
862.00	207.68
863.00	206.40
864.00	216.25
865.00	207.12
866.00	197.75
867.00	210.00
868.00	212.99
869.00	212.64
870.00	207.20
871.00	206.93
872.00	206.00
873.00	198.67
874.00	205.20
875.00	203.93
876.00	199.84
877.00	205.42
878.00	202.99
879.00	205.05
880.00	203.08
881.00	201.03
882.00	203.13
883.00	197.72
884.00	202.00
885.00	203.41
886.00	205.88
887.00	196.55
888.00	205.00
889.00	202.18
890.00	208.01
891.00	205.75
892.00	208.50
893.00	204.47
894.00	200.91
895.00	206.82
896.00	205.36
897.00	201.56
898.00	202.42
899.00	204.81
900.00	206.56
901.00	207.31
902.00	199.49
903.00	210.43
904.00	204.76
905.00	200.09
906.00	206.44
907.00	204.68
908.00	208.50
909.00	204.91
910.00	204.89
911.00	206.69
912.00	219.34
913.00	326.40
914.00	267.48
915.00	241.57
916.00	224.71
917.00	213.84
918.00	202.94
919.00	205.01
920.00	208.57
921.00	211.46
922.00	206.66
923.00	220.76
924.00	216.27
925.00	212.41
926.00	208.99
927.00	206.77
928.00	202.45
929.00	204.22
930.00	206.31
931.00	203.01
932.00	198.25
933.00	203.34
934.00	204.61
935.00	202.47
936.00	198.60
937.00	207.02
938.00	207.60
939.00	204.92
940.00	200.58
941.00	203.96
942.00	209.98
943.00	207.79
944.00	204.39
945.00	206.85
946.00	204.78
947.00	202.14
948.00	202.26
949.00	205.05
950.00	201.80
951.00	200.46
952.00	202.99
953.00	200.20
954.00	204.43
955.00	204.29
956.00	204.04
957.00	204.39
958.00	206.07
959.00	203.91
960.00	201.32
961.00	200.69
962.00	204.06
963.00	202.46
964.00	204.90
965.00	204.23
966.00	203.05
967.00	208.34
968.00	216.00
969.00	209.19
970.00	201.45
971.00	207.86
972.00	202.71
973.00	208.50
974.00	205.91
975.00	201.02
976.00	205.05
977.00	203.45
978.00	204.97
979.00	200.51
980.00	204.01
981.00	203.82
982.00	205.47
983.00	204.76
984.00	206.02
985.00	205.13
986.00	204.18
987.00	202.67
988.00	203.35
989.00	206.23
990.00	200.18
991.00	205.89
992.00	203.40
993.00	202.57
994.00	205.21
995.00	202.47
996.00	204.73
997.00	201.20
998.00	202.03
999.00	203.27
1000.00	202.45
>>>>>End Processed Spectral Data<<<<<
