SpectraSuite Data File
++++++++++++++++++++++++++++++++++++
Date: Tue Oct 18 14:49:23 CDT 2011
User: Helimak
Dark Spectrum Present: No
Reference Spectrum Present: No
Number of Sampled Component Spectra: 1
Spectrometers: USB2G37154
Integration Time (usec): 200000 (USB2G37154)
Spectra Averaged: 1 (USB2G37154)
Boxcar Smoothing: 0 (USB2G37154)
Correct for Electrical Dark: No (USB2G37154)
Strobe/Lamp Enabled: No (USB2G37154)
Correct for Detector Non-linearity: No (USB2G37154)
Correct for Stray Light: No (USB2G37154)
Number of Pixels in Processed Spectrum: 651
>>>>>Begin Processed Spectral Data<<<<<
350.00	204.06
351.00	202.11
352.00	199.70
353.00	199.33
354.00	205.83
355.00	205.18
356.00	204.96
357.00	208.15
358.00	208.55
359.00	203.59
360.00	205.08
361.00	204.82
362.00	207.86
363.00	205.29
364.00	206.52
365.00	208.10
366.00	207.15
367.00	205.87
368.00	207.60
369.00	208.13
370.00	208.02
371.00	208.48
372.00	214.10
373.00	212.01
374.00	208.33
375.00	212.56
376.00	213.02
377.00	217.66
378.00	217.75
379.00	219.11
380.00	222.94
381.00	218.63
382.00	225.98
383.00	225.74
384.00	228.24
385.00	231.13
386.00	225.10
387.00	230.96
388.00	224.16
389.00	220.80
390.00	223.95
391.00	223.41
392.00	226.29
393.00	232.86
394.00	237.21
395.00	225.00
396.00	225.99
397.00	222.49
398.00	224.57
399.00	230.25
400.00	253.93
401.00	268.35
402.00	260.28
403.00	271.20
404.00	274.11
405.00	256.71
406.00	264.02
407.00	271.05
408.00	249.16
409.00	247.39
410.00	254.07
411.00	234.41
412.00	240.65
413.00	240.90
414.00	235.42
415.00	294.37
416.00	273.86
417.00	263.67
418.00	280.68
419.00	386.71
420.00	319.47
421.00	258.65
422.00	279.64
423.00	267.39
424.00	262.58
425.00	341.94
426.00	389.67
427.00	377.64
428.00	309.05
429.00	304.97
430.00	284.42
431.00	266.73
432.00	309.49
433.00	362.43
434.00	710.13
435.00	462.90
436.00	335.60
437.00	316.24
438.00	286.16
439.00	333.21
440.00	309.16
441.00	298.37
442.00	488.65
443.00	350.36
444.00	261.61
445.00	245.75
446.00	241.10
447.00	259.01
448.00	257.47
449.00	254.95
450.00	269.07
451.00	275.12
452.00	272.90
453.00	284.61
454.00	335.93
455.00	293.79
456.00	289.44
457.00	321.70
458.00	400.54
459.00	347.51
460.00	476.37
461.00	375.82
462.00	291.13
463.00	268.89
464.00	251.72
465.00	302.75
466.00	280.77
467.00	259.07
468.00	265.49
469.00	268.16
470.00	265.78
471.00	267.69
472.00	331.51
473.00	341.85
474.00	285.90
475.00	270.56
476.00	350.05
477.00	285.91
478.00	251.85
479.00	267.30
480.00	549.82
481.00	348.90
482.00	278.14
483.00	263.40
484.00	317.80
485.00	341.47
486.00	354.11
487.00	682.01
488.00	572.46
489.00	366.66
490.00	296.62
491.00	289.54
492.00	285.04
493.00	296.21
494.00	277.01
495.00	275.92
496.00	333.30
497.00	284.44
498.00	275.30
499.00	270.12
500.00	323.68
501.00	347.78
502.00	289.03
503.00	274.55
504.00	299.03
505.00	325.91
506.00	327.66
507.00	321.80
508.00	314.56
509.00	294.55
510.00	275.69
511.00	272.06
512.00	267.91
513.00	281.31
514.00	332.49
515.00	292.75
516.00	287.71
517.00	271.46
518.00	294.08
519.00	278.34
520.00	262.00
521.00	265.33
522.00	272.26
523.00	258.15
524.00	262.08
525.00	275.76
526.00	271.87
527.00	262.84
528.00	262.50
529.00	256.92
530.00	254.90
531.00	263.08
532.00	266.79
533.00	274.73
534.00	276.58
535.00	284.08
536.00	284.20
537.00	278.30
538.00	271.49
539.00	271.38
540.00	264.52
541.00	273.35
542.00	280.43
543.00	266.89
544.00	281.42
545.00	287.19
546.00	280.01
547.00	288.72
548.00	278.09
549.00	315.41
550.00	309.50
551.00	291.02
552.00	277.29
553.00	271.21
554.00	266.80
555.00	292.20
556.00	306.76
557.00	283.77
558.00	261.74
559.00	259.92
560.00	286.06
561.00	265.52
562.00	248.70
563.00	251.21
564.00	260.94
565.00	275.63
566.00	270.47
567.00	270.58
568.00	276.96
569.00	269.20
570.00	268.86
571.00	265.66
572.00	248.47
573.00	258.56
574.00	273.88
575.00	250.44
576.00	252.01
577.00	258.84
578.00	254.84
579.00	250.49
580.00	251.06
581.00	241.54
582.00	241.15
583.00	252.53
584.00	248.70
585.00	242.87
586.00	252.17
587.00	253.20
588.00	272.44
589.00	287.57
590.00	261.43
591.00	260.46
592.00	252.33
593.00	262.48
594.00	249.01
595.00	240.28
596.00	240.25
597.00	240.40
598.00	249.34
599.00	252.05
600.00	255.74
601.00	261.38
602.00	267.25
603.00	384.55
604.00	344.98
605.00	292.17
606.00	277.46
607.00	245.41
608.00	236.66
609.00	235.87
610.00	259.20
611.00	285.42
612.00	270.57
613.00	246.66
614.00	246.61
615.00	252.24
616.00	248.90
617.00	288.96
618.00	252.61
619.00	254.03
620.00	242.71
621.00	260.75
622.00	244.91
623.00	238.64
624.00	251.23
625.00	261.22
626.00	246.04
627.00	248.66
628.00	241.29
629.00	244.10
630.00	255.90
631.00	255.28
632.00	237.26
633.00	229.89
634.00	227.23
635.00	224.94
636.00	226.99
637.00	232.84
638.00	236.00
639.00	236.28
640.00	248.18
641.00	255.41
642.00	275.59
643.00	244.77
644.00	237.61
645.00	239.10
646.00	240.86
647.00	238.56
648.00	235.27
649.00	232.94
650.00	227.29
651.00	227.54
652.00	228.19
653.00	226.94
654.00	235.75
655.00	233.19
656.00	364.67
657.00	331.90
658.00	262.99
659.00	233.28
660.00	232.23
661.00	232.28
662.00	223.16
663.00	220.05
664.00	252.89
665.00	249.11
666.00	223.83
667.00	225.17
668.00	240.09
669.00	239.73
670.00	222.88
671.00	217.55
672.00	221.28
673.00	224.05
674.00	223.10
675.00	270.39
676.00	277.11
677.00	232.98
678.00	219.53
679.00	217.61
680.00	216.93
681.00	218.13
682.00	223.26
683.00	219.69
684.00	220.85
685.00	223.31
686.00	218.95
687.00	246.53
688.00	245.39
689.00	238.36
690.00	222.46
691.00	225.61
692.00	219.77
693.00	224.26
694.00	242.17
695.00	232.05
696.00	273.02
697.00	425.67
698.00	282.26
699.00	238.38
700.00	225.32
701.00	226.44
702.00	223.93
703.00	256.84
704.00	251.18
705.00	229.02
706.00	223.82
707.00	345.93
708.00	265.91
709.00	229.71
710.00	216.01
711.00	220.19
712.00	216.65
713.00	222.27
714.00	216.71
715.00	231.64
716.00	226.72
717.00	218.19
718.00	214.15
719.00	208.10
720.00	213.99
721.00	220.14
722.00	217.56
723.00	219.58
724.00	220.22
725.00	238.44
726.00	218.07
727.00	237.21
728.00	254.27
729.00	225.14
730.00	217.24
731.00	215.30
732.00	218.13
733.00	212.19
734.00	213.52
735.00	222.84
736.00	232.75
737.00	244.78
738.00	308.72
739.00	402.08
740.00	269.79
741.00	232.09
742.00	221.00
743.00	215.98
744.00	224.12
745.00	225.61
746.00	213.46
747.00	213.79
748.00	208.45
749.00	217.32
750.00	282.31
751.00	732.31
752.00	573.74
753.00	335.33
754.00	243.35
755.00	208.96
756.00	215.06
757.00	214.28
758.00	215.41
759.00	217.96
760.00	216.36
761.00	211.68
762.00	216.79
763.00	256.54
764.00	1176.07
765.00	587.14
766.00	337.55
767.00	227.20
768.00	218.14
769.00	211.02
770.00	209.10
771.00	212.64
772.00	225.79
773.00	408.29
774.00	285.49
775.00	237.59
776.00	210.70
777.00	223.40
778.00	319.02
779.00	253.68
780.00	220.91
781.00	213.49
782.00	211.14
783.00	211.44
784.00	209.65
785.00	208.01
786.00	212.30
787.00	214.89
788.00	212.12
789.00	221.01
790.00	225.58
791.00	212.66
792.00	213.19
793.00	211.66
794.00	213.47
795.00	352.16
796.00	365.73
797.00	261.21
798.00	228.68
799.00	215.64
800.00	210.86
801.00	341.22
802.00	494.70
803.00	344.64
804.00	253.32
805.00	218.16
806.00	218.91
807.00	209.72
808.00	211.37
809.00	212.74
810.00	225.29
811.00	482.36
812.00	2294.65
813.00	1319.16
814.00	551.41
815.00	341.32
816.00	222.00
817.00	214.48
818.00	206.13
819.00	211.38
820.00	206.30
821.00	204.97
822.00	208.70
823.00	204.93
824.00	210.08
825.00	216.90
826.00	209.13
827.00	297.36
828.00	254.24
829.00	225.93
830.00	212.88
831.00	207.09
832.00	203.61
833.00	208.43
834.00	210.11
835.00	207.48
836.00	210.84
837.00	205.23
838.00	207.66
839.00	208.80
840.00	208.77
841.00	275.22
842.00	313.08
843.00	500.91
844.00	362.54
845.00	269.09
846.00	237.93
847.00	212.82
848.00	206.47
849.00	200.69
850.00	205.79
851.00	204.86
852.00	215.18
853.00	270.77
854.00	226.95
855.00	214.16
856.00	217.22
857.00	205.95
858.00	204.73
859.00	204.87
860.00	207.80
861.00	212.47
862.00	206.50
863.00	208.49
864.00	206.87
865.00	209.13
866.00	205.94
867.00	212.90
868.00	213.00
869.00	211.52
870.00	205.40
871.00	207.88
872.00	208.06
873.00	207.02
874.00	205.82
875.00	203.78
876.00	204.04
877.00	207.32
878.00	208.85
879.00	208.24
880.00	207.38
881.00	206.86
882.00	202.42
883.00	203.27
884.00	200.00
885.00	204.62
886.00	205.42
887.00	207.64
888.00	206.34
889.00	202.21
890.00	210.53
891.00	211.42
892.00	205.19
893.00	203.92
894.00	203.86
895.00	210.65
896.00	201.76
897.00	201.83
898.00	204.89
899.00	201.97
900.00	203.51
901.00	207.69
902.00	206.19
903.00	209.48
904.00	201.25
905.00	205.03
906.00	207.92
907.00	205.15
908.00	204.52
909.00	204.67
910.00	206.59
911.00	208.60
912.00	220.89
913.00	348.17
914.00	284.75
915.00	250.75
916.00	228.46
917.00	214.62
918.00	211.31
919.00	208.13
920.00	206.75
921.00	206.97
922.00	210.63
923.00	224.86
924.00	216.18
925.00	220.30
926.00	207.00
927.00	209.97
928.00	203.55
929.00	203.92
930.00	204.02
931.00	203.14
932.00	202.43
933.00	202.26
934.00	200.04
935.00	202.64
936.00	203.26
937.00	202.75
938.00	206.57
939.00	200.99
940.00	207.42
941.00	201.74
942.00	207.96
943.00	201.17
944.00	203.56
945.00	207.16
946.00	202.57
947.00	201.04
948.00	203.01
949.00	204.04
950.00	204.34
951.00	203.68
952.00	203.16
953.00	209.59
954.00	200.19
955.00	205.97
956.00	205.19
957.00	207.40
958.00	205.15
959.00	206.97
960.00	205.28
961.00	204.16
962.00	198.62
963.00	200.98
964.00	209.65
965.00	200.33
966.00	205.29
967.00	213.96
968.00	212.02
969.00	209.19
970.00	203.68
971.00	205.65
972.00	205.04
973.00	206.22
974.00	202.28
975.00	204.15
976.00	208.87
977.00	201.49
978.00	201.04
979.00	204.68
980.00	204.46
981.00	201.79
982.00	205.93
983.00	210.36
984.00	204.78
985.00	203.85
986.00	204.54
987.00	201.95
988.00	207.36
989.00	202.60
990.00	203.71
991.00	205.52
992.00	202.47
993.00	202.89
994.00	206.36
995.00	201.85
996.00	202.59
997.00	206.34
998.00	201.61
999.00	207.67
1000.00	203.27
>>>>>End Processed Spectral Data<<<<<
