SpectraSuite Data File
++++++++++++++++++++++++++++++++++++
Date: Tue Oct 18 14:49:23 CDT 2011
User: Helimak
Dark Spectrum Present: No
Reference Spectrum Present: No
Number of Sampled Component Spectra: 1
Spectrometers: USB2G37154
Integration Time (usec): 200000 (USB2G37154)
Spectra Averaged: 1 (USB2G37154)
Boxcar Smoothing: 0 (USB2G37154)
Correct for Electrical Dark: No (USB2G37154)
Strobe/Lamp Enabled: No (USB2G37154)
Correct for Detector Non-linearity: No (USB2G37154)
Correct for Stray Light: No (USB2G37154)
Number of Pixels in Processed Spectrum: 651
>>>>>Begin Processed Spectral Data<<<<<
350.00	203.92
351.00	205.58
352.00	201.68
353.00	201.20
354.00	200.79
355.00	208.01
356.00	205.09
357.00	203.71
358.00	207.15
359.00	206.67
360.00	208.05
361.00	205.61
362.00	206.37
363.00	198.00
364.00	207.62
365.00	207.95
366.00	203.63
367.00	207.89
368.00	203.40
369.00	207.58
370.00	208.06
371.00	210.46
372.00	212.19
373.00	211.78
374.00	211.62
375.00	212.64
376.00	209.46
377.00	218.41
378.00	220.70
379.00	218.12
380.00	223.28
381.00	223.55
382.00	218.85
383.00	227.96
384.00	227.61
385.00	231.83
386.00	229.95
387.00	233.08
388.00	221.95
389.00	218.05
390.00	225.57
391.00	227.30
392.00	230.04
393.00	228.95
394.00	241.48
395.00	228.10
396.00	222.82
397.00	225.86
398.00	223.49
399.00	242.13
400.00	250.22
401.00	261.75
402.00	256.17
403.00	272.85
404.00	274.04
405.00	257.69
406.00	265.02
407.00	277.02
408.00	243.82
409.00	249.93
410.00	254.79
411.00	234.98
412.00	243.70
413.00	242.02
414.00	237.03
415.00	295.23
416.00	273.69
417.00	256.05
418.00	279.63
419.00	383.75
420.00	322.87
421.00	259.65
422.00	278.77
423.00	260.58
424.00	252.95
425.00	340.27
426.00	397.79
427.00	388.88
428.00	309.30
429.00	303.21
430.00	288.85
431.00	270.28
432.00	304.28
433.00	366.29
434.00	709.68
435.00	461.52
436.00	334.13
437.00	322.81
438.00	280.81
439.00	331.96
440.00	311.06
441.00	299.19
442.00	488.55
443.00	343.57
444.00	267.74
445.00	241.94
446.00	243.72
447.00	261.20
448.00	255.56
449.00	255.06
450.00	267.82
451.00	273.64
452.00	266.69
453.00	280.12
454.00	338.56
455.00	294.01
456.00	295.87
457.00	339.95
458.00	409.08
459.00	348.16
460.00	484.50
461.00	375.58
462.00	289.30
463.00	263.93
464.00	259.62
465.00	313.19
466.00	280.90
467.00	256.90
468.00	266.51
469.00	267.62
470.00	258.28
471.00	265.04
472.00	326.77
473.00	349.81
474.00	283.25
475.00	274.16
476.00	344.66
477.00	275.62
478.00	255.50
479.00	266.51
480.00	542.44
481.00	350.21
482.00	282.95
483.00	264.84
484.00	317.90
485.00	346.28
486.00	362.69
487.00	685.25
488.00	566.73
489.00	365.69
490.00	300.34
491.00	282.87
492.00	284.41
493.00	304.64
494.00	276.84
495.00	275.21
496.00	334.38
497.00	292.72
498.00	271.33
499.00	269.35
500.00	320.04
501.00	355.62
502.00	289.03
503.00	270.92
504.00	297.97
505.00	326.37
506.00	326.36
507.00	324.98
508.00	307.53
509.00	292.79
510.00	279.06
511.00	270.99
512.00	271.54
513.00	280.46
514.00	339.61
515.00	288.13
516.00	288.71
517.00	271.40
518.00	295.73
519.00	282.92
520.00	262.82
521.00	269.33
522.00	273.75
523.00	260.92
524.00	264.23
525.00	276.11
526.00	266.60
527.00	262.17
528.00	260.23
529.00	256.99
530.00	253.06
531.00	263.87
532.00	265.07
533.00	277.32
534.00	279.69
535.00	285.82
536.00	278.72
537.00	281.56
538.00	280.84
539.00	268.24
540.00	272.18
541.00	269.41
542.00	270.29
543.00	270.64
544.00	273.51
545.00	290.65
546.00	286.72
547.00	288.53
548.00	273.38
549.00	320.23
550.00	310.75
551.00	296.96
552.00	277.37
553.00	271.77
554.00	268.14
555.00	296.79
556.00	303.22
557.00	281.89
558.00	259.06
559.00	260.97
560.00	285.16
561.00	265.78
562.00	256.04
563.00	253.01
564.00	253.28
565.00	277.48
566.00	262.55
567.00	272.53
568.00	273.90
569.00	271.89
570.00	264.86
571.00	270.06
572.00	245.64
573.00	260.73
574.00	270.98
575.00	250.30
576.00	252.81
577.00	255.06
578.00	253.34
579.00	255.11
580.00	249.84
581.00	246.98
582.00	244.18
583.00	248.63
584.00	241.59
585.00	244.79
586.00	254.91
587.00	249.12
588.00	272.07
589.00	283.93
590.00	258.93
591.00	258.44
592.00	252.17
593.00	257.19
594.00	253.03
595.00	238.85
596.00	241.35
597.00	248.98
598.00	248.06
599.00	255.00
600.00	260.83
601.00	265.06
602.00	267.76
603.00	393.92
604.00	338.61
605.00	296.32
606.00	274.22
607.00	244.95
608.00	236.05
609.00	241.92
610.00	259.11
611.00	287.86
612.00	269.44
613.00	242.13
614.00	244.76
615.00	248.83
616.00	247.70
617.00	294.91
618.00	252.62
619.00	253.90
620.00	241.91
621.00	260.49
622.00	246.45
623.00	236.54
624.00	255.08
625.00	249.66
626.00	248.92
627.00	248.10
628.00	244.43
629.00	248.86
630.00	258.82
631.00	263.00
632.00	236.32
633.00	232.00
634.00	228.95
635.00	231.92
636.00	237.28
637.00	232.22
638.00	236.05
639.00	239.77
640.00	241.85
641.00	251.70
642.00	267.33
643.00	243.78
644.00	240.77
645.00	231.91
646.00	243.96
647.00	229.59
648.00	240.51
649.00	231.81
650.00	225.93
651.00	225.62
652.00	227.27
653.00	227.49
654.00	236.98
655.00	233.75
656.00	374.48
657.00	336.46
658.00	269.98
659.00	232.65
660.00	229.46
661.00	231.23
662.00	220.58
663.00	221.86
664.00	253.18
665.00	245.42
666.00	231.04
667.00	226.71
668.00	239.33
669.00	239.76
670.00	223.69
671.00	218.39
672.00	220.45
673.00	224.05
674.00	223.06
675.00	266.91
676.00	274.03
677.00	232.14
678.00	216.82
679.00	219.52
680.00	217.77
681.00	222.57
682.00	223.26
683.00	218.00
684.00	224.36
685.00	222.24
686.00	214.52
687.00	242.24
688.00	240.42
689.00	233.63
690.00	223.99
691.00	223.76
692.00	221.04
693.00	226.21
694.00	245.18
695.00	237.99
696.00	274.02
697.00	434.94
698.00	274.20
699.00	242.79
700.00	228.08
701.00	226.41
702.00	223.23
703.00	260.94
704.00	248.02
705.00	227.52
706.00	221.32
707.00	348.42
708.00	267.99
709.00	234.56
710.00	220.04
711.00	218.10
712.00	223.46
713.00	214.27
714.00	214.48
715.00	235.70
716.00	226.42
717.00	219.88
718.00	209.96
719.00	210.76
720.00	214.57
721.00	215.97
722.00	220.85
723.00	220.94
724.00	221.12
725.00	236.43
726.00	217.52
727.00	232.08
728.00	252.79
729.00	227.02
730.00	210.32
731.00	220.38
732.00	217.43
733.00	213.91
734.00	215.24
735.00	225.02
736.00	234.05
737.00	243.30
738.00	311.21
739.00	398.59
740.00	267.78
741.00	232.02
742.00	217.98
743.00	221.02
744.00	229.92
745.00	225.58
746.00	210.24
747.00	210.80
748.00	214.77
749.00	217.14
750.00	288.82
751.00	730.15
752.00	586.40
753.00	334.71
754.00	240.27
755.00	213.89
756.00	212.95
757.00	209.92
758.00	212.68
759.00	215.91
760.00	214.61
761.00	217.34
762.00	216.33
763.00	262.39
764.00	1168.98
765.00	597.60
766.00	334.13
767.00	232.79
768.00	211.81
769.00	208.48
770.00	205.48
771.00	210.07
772.00	223.17
773.00	410.77
774.00	282.50
775.00	241.54
776.00	210.91
777.00	226.30
778.00	325.03
779.00	247.57
780.00	221.53
781.00	209.87
782.00	207.34
783.00	209.65
784.00	209.03
785.00	215.10
786.00	208.40
787.00	214.26
788.00	211.72
789.00	220.98
790.00	223.93
791.00	214.21
792.00	214.44
793.00	212.14
794.00	212.74
795.00	355.44
796.00	358.68
797.00	258.46
798.00	233.47
799.00	214.78
800.00	208.29
801.00	337.06
802.00	509.60
803.00	342.30
804.00	249.79
805.00	217.33
806.00	214.46
807.00	206.84
808.00	213.68
809.00	218.97
810.00	228.10
811.00	486.57
812.00	2310.67
813.00	1341.26
814.00	566.68
815.00	340.28
816.00	221.63
817.00	214.70
818.00	207.65
819.00	213.41
820.00	205.11
821.00	200.82
822.00	205.50
823.00	209.74
824.00	209.54
825.00	215.30
826.00	212.01
827.00	297.79
828.00	254.55
829.00	219.67
830.00	212.53
831.00	207.94
832.00	203.63
833.00	207.44
834.00	209.96
835.00	207.86
836.00	205.19
837.00	207.90
838.00	207.34
839.00	204.92
840.00	210.70
841.00	274.01
842.00	314.63
843.00	500.04
844.00	360.36
845.00	268.34
846.00	236.31
847.00	213.92
848.00	212.92
849.00	204.76
850.00	205.91
851.00	205.36
852.00	216.92
853.00	279.98
854.00	225.66
855.00	213.40
856.00	219.42
857.00	203.85
858.00	210.75
859.00	200.20
860.00	206.68
861.00	210.35
862.00	204.66
863.00	205.93
864.00	206.50
865.00	208.03
866.00	207.55
867.00	209.00
868.00	212.99
869.00	208.71
870.00	208.33
871.00	205.14
872.00	206.91
873.00	204.30
874.00	203.65
875.00	203.50
876.00	205.18
877.00	206.36
878.00	207.71
879.00	204.42
880.00	205.91
881.00	203.99
882.00	207.96
883.00	208.44
884.00	203.00
885.00	204.65
886.00	204.70
887.00	206.14
888.00	207.27
889.00	200.82
890.00	208.52
891.00	204.92
892.00	204.16
893.00	203.75
894.00	213.21
895.00	207.63
896.00	202.36
897.00	203.01
898.00	204.88
899.00	202.71
900.00	207.15
901.00	203.23
902.00	201.27
903.00	211.69
904.00	202.22
905.00	205.15
906.00	206.77
907.00	203.93
908.00	204.40
909.00	206.73
910.00	206.41
911.00	204.83
912.00	226.60
913.00	345.72
914.00	283.14
915.00	243.20
916.00	230.73
917.00	216.08
918.00	205.74
919.00	207.53
920.00	202.68
921.00	209.63
922.00	198.03
923.00	224.93
924.00	220.67
925.00	214.98
926.00	209.03
927.00	212.03
928.00	203.12
929.00	205.64
930.00	207.93
931.00	204.74
932.00	206.93
933.00	204.12
934.00	200.38
935.00	203.59
936.00	201.51
937.00	199.91
938.00	203.06
939.00	210.42
940.00	205.87
941.00	201.58
942.00	205.93
943.00	204.83
944.00	204.61
945.00	209.13
946.00	200.92
947.00	201.18
948.00	203.93
949.00	204.12
950.00	201.04
951.00	203.60
952.00	203.01
953.00	206.78
954.00	200.98
955.00	206.98
956.00	205.80
957.00	204.43
958.00	204.84
959.00	198.98
960.00	199.39
961.00	199.31
962.00	207.19
963.00	202.42
964.00	205.14
965.00	199.84
966.00	200.58
967.00	213.04
968.00	209.98
969.00	208.38
970.00	204.24
971.00	206.79
972.00	206.83
973.00	207.10
974.00	204.69
975.00	206.07
976.00	204.16
977.00	203.63
978.00	204.91
979.00	204.24
980.00	204.12
981.00	203.76
982.00	203.53
983.00	204.82
984.00	205.91
985.00	207.01
986.00	201.45
987.00	198.50
988.00	205.30
989.00	201.85
990.00	205.00
991.00	206.13
992.00	205.26
993.00	205.52
994.00	202.62
995.00	206.42
996.00	204.23
997.00	203.99
998.00	201.92
999.00	201.31
1000.00	202.14
>>>>>End Processed Spectral Data<<<<<
