SpectraSuite Data File
++++++++++++++++++++++++++++++++++++
Date: Tue Oct 18 14:47:31 CDT 2011
User: Helimak
Dark Spectrum Present: No
Reference Spectrum Present: No
Number of Sampled Component Spectra: 1
Spectrometers: USB2G37154
Integration Time (usec): 200000 (USB2G37154)
Spectra Averaged: 1 (USB2G37154)
Boxcar Smoothing: 0 (USB2G37154)
Correct for Electrical Dark: No (USB2G37154)
Strobe/Lamp Enabled: No (USB2G37154)
Correct for Detector Non-linearity: No (USB2G37154)
Correct for Stray Light: No (USB2G37154)
Number of Pixels in Processed Spectrum: 651
>>>>>Begin Processed Spectral Data<<<<<
350.00	201.08
351.00	205.28
352.00	204.95
353.00	207.23
354.00	206.55
355.00	210.07
356.00	207.98
357.00	204.59
358.00	209.23
359.00	207.96
360.00	206.48
361.00	209.63
362.00	213.77
363.00	206.00
364.00	209.52
365.00	212.14
366.00	211.76
367.00	210.94
368.00	211.23
369.00	205.91
370.00	212.06
371.00	218.83
372.00	217.62
373.00	213.75
374.00	212.75
375.00	216.06
376.00	224.39
377.00	224.30
378.00	231.36
379.00	230.92
380.00	229.82
381.00	236.66
382.00	232.09
383.00	239.94
384.00	247.16
385.00	244.12
386.00	249.02
387.00	250.17
388.00	240.57
389.00	232.44
390.00	232.97
391.00	240.74
392.00	252.42
393.00	243.75
394.00	251.57
395.00	240.61
396.00	249.92
397.00	236.49
398.00	237.60
399.00	250.28
400.00	285.46
401.00	300.48
402.00	295.44
403.00	315.17
404.00	320.04
405.00	291.38
406.00	316.07
407.00	329.33
408.00	284.92
409.00	288.07
410.00	291.69
411.00	259.77
412.00	276.75
413.00	266.35
414.00	254.86
415.00	352.13
416.00	316.39
417.00	280.65
418.00	332.21
419.00	495.70
420.00	398.03
421.00	295.82
422.00	345.32
423.00	308.36
424.00	290.08
425.00	440.43
426.00	543.81
427.00	541.69
428.00	384.80
429.00	361.74
430.00	342.22
431.00	301.28
432.00	380.48
433.00	488.62
434.00	1212.38
435.00	708.74
436.00	460.06
437.00	419.07
438.00	336.86
439.00	437.94
440.00	386.64
441.00	378.39
442.00	769.59
443.00	475.08
444.00	319.68
445.00	262.99
446.00	266.74
447.00	313.82
448.00	302.66
449.00	282.19
450.00	310.10
451.00	308.47
452.00	301.55
453.00	331.99
454.00	450.29
455.00	359.06
456.00	340.94
457.00	415.70
458.00	593.22
459.00	475.58
460.00	771.51
461.00	539.32
462.00	358.46
463.00	304.22
464.00	285.05
465.00	392.17
466.00	330.75
467.00	289.04
468.00	285.28
469.00	296.92
470.00	291.32
471.00	295.19
472.00	429.66
473.00	471.51
474.00	337.07
475.00	317.72
476.00	479.04
477.00	334.16
478.00	286.39
479.00	309.98
480.00	870.13
481.00	464.26
482.00	323.15
483.00	290.83
484.00	411.06
485.00	441.74
486.00	467.22
487.00	1149.50
488.00	913.80
489.00	486.56
490.00	356.69
491.00	325.03
492.00	325.05
493.00	356.24
494.00	306.63
495.00	308.45
496.00	443.41
497.00	349.99
498.00	300.72
499.00	296.79
500.00	405.27
501.00	480.74
502.00	344.06
503.00	309.43
504.00	347.62
505.00	385.40
506.00	411.47
507.00	386.48
508.00	365.69
509.00	334.40
510.00	309.38
511.00	298.02
512.00	303.62
513.00	320.82
514.00	435.92
515.00	352.71
516.00	331.05
517.00	305.09
518.00	340.09
519.00	319.79
520.00	289.59
521.00	296.15
522.00	301.65
523.00	285.40
524.00	289.10
525.00	310.20
526.00	299.48
527.00	286.28
528.00	278.65
529.00	281.11
530.00	277.19
531.00	286.95
532.00	296.46
533.00	302.22
534.00	307.27
535.00	323.07
536.00	314.10
537.00	314.55
538.00	299.82
539.00	303.88
540.00	296.07
541.00	304.85
542.00	309.96
543.00	297.73
544.00	308.69
545.00	332.33
546.00	323.60
547.00	337.60
548.00	309.89
549.00	385.59
550.00	364.72
551.00	328.84
552.00	307.13
553.00	301.20
554.00	297.08
555.00	332.81
556.00	346.31
557.00	319.14
558.00	287.03
559.00	287.31
560.00	325.63
561.00	294.25
562.00	277.02
563.00	272.15
564.00	279.45
565.00	312.42
566.00	295.48
567.00	299.17
568.00	309.84
569.00	305.58
570.00	298.70
571.00	284.23
572.00	269.05
573.00	281.97
574.00	295.65
575.00	271.85
576.00	265.17
577.00	284.93
578.00	276.69
579.00	269.77
580.00	275.16
581.00	260.63
582.00	258.98
583.00	270.85
584.00	263.46
585.00	254.26
586.00	265.19
587.00	267.10
588.00	306.72
589.00	333.52
590.00	282.32
591.00	287.39
592.00	275.43
593.00	285.85
594.00	268.05
595.00	256.22
596.00	251.43
597.00	259.71
598.00	269.10
599.00	275.97
600.00	279.71
601.00	295.08
602.00	297.66
603.00	487.61
604.00	423.39
605.00	335.06
606.00	308.60
607.00	268.28
608.00	246.40
609.00	253.93
610.00	286.14
611.00	341.45
612.00	321.33
613.00	266.37
614.00	268.13
615.00	280.54
616.00	264.74
617.00	355.82
618.00	287.40
619.00	276.16
620.00	262.40
621.00	283.50
622.00	271.42
623.00	250.17
624.00	279.76
625.00	281.22
626.00	273.05
627.00	263.22
628.00	262.47
629.00	265.48
630.00	279.31
631.00	277.53
632.00	249.08
633.00	238.82
634.00	239.55
635.00	242.98
636.00	237.12
637.00	245.41
638.00	246.83
639.00	248.07
640.00	254.04
641.00	272.52
642.00	318.06
643.00	264.39
644.00	251.04
645.00	248.71
646.00	250.00
647.00	247.32
648.00	253.52
649.00	248.16
650.00	236.01
651.00	238.43
652.00	237.33
653.00	236.79
654.00	248.20
655.00	246.27
656.00	467.13
657.00	421.46
658.00	297.97
659.00	247.42
660.00	236.81
661.00	236.20
662.00	228.08
663.00	219.98
664.00	287.98
665.00	278.87
666.00	247.83
667.00	238.04
668.00	259.44
669.00	264.12
670.00	236.88
671.00	227.45
672.00	229.19
673.00	234.99
674.00	230.12
675.00	297.95
676.00	320.84
677.00	246.25
678.00	231.25
679.00	227.23
680.00	220.55
681.00	226.00
682.00	225.06
683.00	224.73
684.00	232.75
685.00	225.46
686.00	228.24
687.00	274.87
688.00	256.92
689.00	259.77
690.00	229.61
691.00	224.16
692.00	221.20
693.00	231.52
694.00	267.54
695.00	253.05
696.00	309.02
697.00	563.42
698.00	316.12
699.00	256.72
700.00	235.69
701.00	227.23
702.00	228.67
703.00	289.66
704.00	274.40
705.00	237.73
706.00	230.63
707.00	445.26
708.00	304.61
709.00	248.29
710.00	221.76
711.00	226.71
712.00	224.35
713.00	223.57
714.00	222.84
715.00	248.24
716.00	238.93
717.00	224.91
718.00	212.90
719.00	217.24
720.00	220.93
721.00	229.35
722.00	225.87
723.00	227.10
724.00	228.27
725.00	240.57
726.00	228.66
727.00	245.33
728.00	283.91
729.00	237.78
730.00	225.21
731.00	224.69
732.00	227.17
733.00	217.84
734.00	217.97
735.00	227.26
736.00	251.33
737.00	274.40
738.00	367.69
739.00	532.29
740.00	312.02
741.00	243.36
742.00	223.02
743.00	227.99
744.00	238.76
745.00	231.49
746.00	216.29
747.00	213.90
748.00	216.91
749.00	223.40
750.00	335.66
751.00	1084.82
752.00	817.92
753.00	426.08
754.00	262.79
755.00	223.91
756.00	212.15
757.00	215.58
758.00	221.08
759.00	217.43
760.00	220.35
761.00	217.49
762.00	222.23
763.00	281.73
764.00	1783.22
765.00	839.56
766.00	424.74
767.00	250.27
768.00	220.33
769.00	214.86
770.00	211.25
771.00	214.78
772.00	236.01
773.00	533.93
774.00	326.57
775.00	254.95
776.00	214.39
777.00	241.35
778.00	390.04
779.00	283.30
780.00	233.54
781.00	208.95
782.00	211.71
783.00	209.37
784.00	212.59
785.00	213.01
786.00	212.59
787.00	219.36
788.00	218.76
789.00	227.99
790.00	232.52
791.00	224.11
792.00	219.35
793.00	219.01
794.00	218.72
795.00	431.94
796.00	455.67
797.00	290.95
798.00	243.70
799.00	215.60
800.00	215.37
801.00	418.98
802.00	705.86
803.00	432.12
804.00	282.71
805.00	238.95
806.00	223.25
807.00	217.86
808.00	222.79
809.00	221.95
810.00	247.18
811.00	644.71
812.00	3337.35
813.00	1996.15
814.00	771.46
815.00	408.43
816.00	238.06
817.00	216.42
818.00	210.41
819.00	212.21
820.00	210.10
821.00	206.99
822.00	206.90
823.00	205.84
824.00	209.76
825.00	218.94
826.00	215.68
827.00	349.01
828.00	287.23
829.00	234.18
830.00	217.48
831.00	213.50
832.00	212.50
833.00	210.25
834.00	207.58
835.00	211.70
836.00	207.41
837.00	206.82
838.00	209.71
839.00	207.95
840.00	213.03
841.00	322.81
842.00	391.10
843.00	691.16
844.00	451.86
845.00	308.18
846.00	267.03
847.00	216.10
848.00	206.33
849.00	206.88
850.00	207.12
851.00	211.03
852.00	223.13
853.00	318.20
854.00	239.28
855.00	223.67
856.00	218.09
857.00	208.84
858.00	212.95
859.00	204.07
860.00	204.72
861.00	211.39
862.00	209.30
863.00	212.35
864.00	216.17
865.00	208.00
866.00	202.57
867.00	218.70
868.00	219.02
869.00	221.80
870.00	210.98
871.00	206.13
872.00	204.92
873.00	206.32
874.00	207.67
875.00	207.63
876.00	206.12
877.00	200.84
878.00	208.67
879.00	203.44
880.00	207.00
881.00	202.58
882.00	207.26
883.00	206.63
884.00	203.99
885.00	204.21
886.00	205.15
887.00	207.72
888.00	201.22
889.00	206.75
890.00	204.57
891.00	208.96
892.00	205.70
893.00	204.76
894.00	208.31
895.00	209.74
896.00	203.19
897.00	206.40
898.00	205.87
899.00	202.07
900.00	209.54
901.00	205.75
902.00	199.93
903.00	210.22
904.00	201.91
905.00	214.11
906.00	210.73
907.00	207.62
908.00	207.48
909.00	206.44
910.00	205.49
911.00	204.76
912.00	241.13
913.00	424.02
914.00	330.46
915.00	272.87
916.00	248.45
917.00	224.12
918.00	209.43
919.00	205.54
920.00	201.17
921.00	209.56
922.00	208.77
923.00	237.79
924.00	227.57
925.00	218.46
926.00	213.00
927.00	210.12
928.00	204.78
929.00	210.03
930.00	207.09
931.00	202.23
932.00	206.00
933.00	200.69
934.00	204.80
935.00	201.54
936.00	206.85
937.00	203.03
938.00	208.23
939.00	203.98
940.00	201.80
941.00	207.83
942.00	205.98
943.00	205.62
944.00	207.10
945.00	209.26
946.00	202.85
947.00	205.06
948.00	206.51
949.00	206.94
950.00	202.72
951.00	204.15
952.00	204.06
953.00	205.15
954.00	200.20
955.00	205.15
956.00	202.60
957.00	208.80
958.00	205.50
959.00	202.98
960.00	201.50
961.00	200.98
962.00	207.01
963.00	201.27
964.00	203.02
965.00	200.88
966.00	204.26
967.00	212.78
968.00	210.99
969.00	207.93
970.00	209.60
971.00	206.33
972.00	205.64
973.00	204.92
974.00	204.88
975.00	200.18
976.00	205.15
977.00	200.06
978.00	204.22
979.00	207.61
980.00	202.36
981.00	203.56
982.00	205.43
983.00	208.01
984.00	204.89
985.00	201.99
986.00	208.08
987.00	200.24
988.00	205.44
989.00	199.69
990.00	201.00
991.00	206.31
992.00	201.33
993.00	208.74
994.00	207.44
995.00	204.20
996.00	203.14
997.00	206.94
998.00	202.92
999.00	204.69
1000.00	202.17
>>>>>End Processed Spectral Data<<<<<
