SpectraSuite Data File
++++++++++++++++++++++++++++++++++++
Date: Tue Oct 18 14:35:49 CDT 2011
User: Helimak
Dark Spectrum Present: No
Reference Spectrum Present: No
Number of Sampled Component Spectra: 1
Spectrometers: USB2G37154
Integration Time (usec): 200000 (USB2G37154)
Spectra Averaged: 1 (USB2G37154)
Boxcar Smoothing: 0 (USB2G37154)
Correct for Electrical Dark: No (USB2G37154)
Strobe/Lamp Enabled: No (USB2G37154)
Correct for Detector Non-linearity: No (USB2G37154)
Correct for Stray Light: No (USB2G37154)
Number of Pixels in Processed Spectrum: 651
>>>>>Begin Processed Spectral Data<<<<<
350.00	199.00
351.00	207.59
352.00	200.74
353.00	202.21
354.00	202.81
355.00	209.13
356.00	207.85
357.00	207.28
358.00	209.08
359.00	205.29
360.00	209.63
361.00	207.10
362.00	208.83
363.00	203.65
364.00	203.21
365.00	209.85
366.00	205.87
367.00	207.90
368.00	211.02
369.00	210.31
370.00	212.02
371.00	211.44
372.00	216.37
373.00	216.94
374.00	208.71
375.00	214.70
376.00	216.37
377.00	219.76
378.00	224.32
379.00	227.21
380.00	232.69
381.00	225.94
382.00	228.79
383.00	229.75
384.00	235.22
385.00	239.96
386.00	240.96
387.00	237.35
388.00	235.10
389.00	228.27
390.00	229.91
391.00	232.56
392.00	243.51
393.00	242.55
394.00	250.89
395.00	235.39
396.00	232.96
397.00	233.50
398.00	230.26
399.00	239.06
400.00	265.77
401.00	292.16
402.00	283.18
403.00	294.73
404.00	303.18
405.00	274.57
406.00	303.07
407.00	320.81
408.00	267.40
409.00	278.49
410.00	280.27
411.00	252.06
412.00	259.60
413.00	261.06
414.00	246.29
415.00	338.51
416.00	302.23
417.00	279.26
418.00	314.92
419.00	469.18
420.00	363.36
421.00	275.28
422.00	330.21
423.00	295.45
424.00	280.72
425.00	401.03
426.00	494.58
427.00	498.05
428.00	361.81
429.00	340.55
430.00	315.92
431.00	285.66
432.00	358.84
433.00	453.05
434.00	1098.46
435.00	646.82
436.00	415.19
437.00	391.73
438.00	325.11
439.00	413.67
440.00	371.93
441.00	350.81
442.00	713.67
443.00	445.91
444.00	308.35
445.00	260.02
446.00	256.90
447.00	297.96
448.00	288.07
449.00	262.09
450.00	294.97
451.00	297.82
452.00	284.81
453.00	310.23
454.00	418.59
455.00	334.54
456.00	318.46
457.00	376.53
458.00	532.23
459.00	426.73
460.00	709.79
461.00	498.49
462.00	336.73
463.00	283.93
464.00	276.24
465.00	371.17
466.00	315.61
467.00	272.64
468.00	267.43
469.00	280.49
470.00	277.62
471.00	280.71
472.00	402.69
473.00	447.58
474.00	320.41
475.00	305.05
476.00	451.88
477.00	311.81
478.00	269.08
479.00	289.27
480.00	802.37
481.00	437.69
482.00	302.74
483.00	272.49
484.00	387.77
485.00	405.40
486.00	418.78
487.00	1049.45
488.00	852.33
489.00	448.41
490.00	330.70
491.00	301.57
492.00	304.17
493.00	326.37
494.00	291.50
495.00	289.22
496.00	408.92
497.00	329.77
498.00	285.70
499.00	282.86
500.00	379.41
501.00	451.95
502.00	330.06
503.00	294.03
504.00	319.09
505.00	363.67
506.00	373.33
507.00	346.99
508.00	338.19
509.00	308.79
510.00	291.83
511.00	281.15
512.00	280.98
513.00	300.13
514.00	405.09
515.00	328.11
516.00	311.25
517.00	285.74
518.00	321.51
519.00	293.76
520.00	275.39
521.00	273.25
522.00	287.38
523.00	269.68
524.00	272.74
525.00	287.88
526.00	281.35
527.00	270.41
528.00	270.76
529.00	264.96
530.00	267.08
531.00	274.88
532.00	270.36
533.00	288.07
534.00	289.79
535.00	299.22
536.00	297.78
537.00	291.94
538.00	283.49
539.00	283.46
540.00	289.62
541.00	292.85
542.00	294.00
543.00	283.49
544.00	290.59
545.00	310.47
546.00	306.63
547.00	314.57
548.00	288.82
549.00	358.46
550.00	339.00
551.00	310.94
552.00	288.87
553.00	287.61
554.00	281.58
555.00	319.83
556.00	326.16
557.00	304.11
558.00	274.99
559.00	272.24
560.00	310.82
561.00	284.92
562.00	263.70
563.00	258.11
564.00	266.91
565.00	292.25
566.00	279.86
567.00	279.26
568.00	281.95
569.00	282.37
570.00	277.19
571.00	276.03
572.00	257.23
573.00	264.91
574.00	277.63
575.00	253.61
576.00	252.28
577.00	273.85
578.00	261.55
579.00	259.85
580.00	262.39
581.00	253.86
582.00	242.26
583.00	261.61
584.00	255.53
585.00	248.11
586.00	259.33
587.00	255.93
588.00	286.86
589.00	309.92
590.00	268.80
591.00	268.93
592.00	266.03
593.00	276.24
594.00	260.06
595.00	245.57
596.00	243.63
597.00	245.46
598.00	253.30
599.00	264.91
600.00	267.32
601.00	268.25
602.00	278.43
603.00	465.52
604.00	393.10
605.00	315.77
606.00	291.04
607.00	259.88
608.00	236.88
609.00	243.93
610.00	266.24
611.00	323.49
612.00	302.23
613.00	258.16
614.00	254.64
615.00	260.48
616.00	255.07
617.00	335.81
618.00	273.72
619.00	259.75
620.00	251.63
621.00	269.11
622.00	257.96
623.00	240.91
624.00	264.78
625.00	272.04
626.00	260.12
627.00	252.51
628.00	246.12
629.00	255.45
630.00	273.39
631.00	269.89
632.00	243.43
633.00	235.67
634.00	237.45
635.00	232.00
636.00	231.82
637.00	239.70
638.00	234.75
639.00	238.54
640.00	254.47
641.00	265.90
642.00	294.34
643.00	246.78
644.00	240.90
645.00	236.25
646.00	245.04
647.00	237.69
648.00	242.50
649.00	239.28
650.00	234.45
651.00	228.18
652.00	234.85
653.00	230.30
654.00	237.56
655.00	236.18
656.00	409.04
657.00	373.55
658.00	281.98
659.00	240.51
660.00	235.33
661.00	233.49
662.00	222.18
663.00	222.30
664.00	281.91
665.00	271.64
666.00	238.02
667.00	239.51
668.00	248.38
669.00	250.80
670.00	234.00
671.00	225.92
672.00	226.00
673.00	227.99
674.00	221.17
675.00	285.94
676.00	303.88
677.00	243.66
678.00	223.04
679.00	226.37
680.00	220.32
681.00	219.11
682.00	227.92
683.00	220.76
684.00	227.25
685.00	224.98
686.00	221.55
687.00	266.87
688.00	258.35
689.00	251.15
690.00	224.93
691.00	221.97
692.00	222.35
693.00	223.07
694.00	256.25
695.00	244.88
696.00	292.02
697.00	532.28
698.00	306.22
699.00	243.91
700.00	229.55
701.00	225.43
702.00	225.92
703.00	277.48
704.00	263.66
705.00	236.25
706.00	223.10
707.00	424.69
708.00	299.30
709.00	240.54
710.00	216.29
711.00	227.28
712.00	220.91
713.00	215.75
714.00	219.03
715.00	245.38
716.00	237.45
717.00	219.34
718.00	218.02
719.00	209.20
720.00	216.63
721.00	225.74
722.00	223.88
723.00	221.59
724.00	226.05
725.00	237.72
726.00	220.56
727.00	241.40
728.00	266.43
729.00	230.99
730.00	224.25
731.00	216.64
732.00	222.73
733.00	216.54
734.00	209.39
735.00	229.32
736.00	248.81
737.00	264.87
738.00	350.84
739.00	495.04
740.00	305.18
741.00	239.43
742.00	219.94
743.00	223.06
744.00	235.11
745.00	230.82
746.00	212.35
747.00	218.26
748.00	216.09
749.00	227.24
750.00	318.28
751.00	992.70
752.00	749.04
753.00	404.94
754.00	261.02
755.00	219.40
756.00	214.04
757.00	209.75
758.00	213.93
759.00	221.14
760.00	217.08
761.00	214.79
762.00	216.04
763.00	265.89
764.00	1594.31
765.00	795.51
766.00	403.23
767.00	241.79
768.00	216.05
769.00	209.92
770.00	208.96
771.00	207.76
772.00	231.90
773.00	503.20
774.00	322.36
775.00	251.45
776.00	212.70
777.00	224.72
778.00	351.00
779.00	270.56
780.00	225.03
781.00	210.27
782.00	209.67
783.00	211.33
784.00	211.56
785.00	209.33
786.00	210.55
787.00	218.67
788.00	215.06
789.00	219.95
790.00	223.40
791.00	218.62
792.00	221.51
793.00	217.15
794.00	217.29
795.00	395.72
796.00	433.20
797.00	281.66
798.00	248.68
799.00	220.73
800.00	219.00
801.00	385.56
802.00	639.52
803.00	415.67
804.00	280.05
805.00	229.11
806.00	218.39
807.00	210.98
808.00	213.58
809.00	220.95
810.00	233.87
811.00	594.40
812.00	2946.65
813.00	1802.40
814.00	737.28
815.00	395.30
816.00	226.99
817.00	219.62
818.00	210.58
819.00	208.53
820.00	206.21
821.00	209.96
822.00	206.12
823.00	209.82
824.00	203.93
825.00	214.94
826.00	209.54
827.00	344.56
828.00	277.01
829.00	228.95
830.00	219.04
831.00	207.84
832.00	208.77
833.00	207.90
834.00	204.85
835.00	207.31
836.00	209.46
837.00	207.12
838.00	201.21
839.00	212.90
840.00	209.22
841.00	300.52
842.00	366.03
843.00	631.03
844.00	418.59
845.00	294.76
846.00	254.99
847.00	217.88
848.00	206.05
849.00	204.54
850.00	204.76
851.00	203.96
852.00	220.44
853.00	311.01
854.00	235.79
855.00	220.70
856.00	219.45
857.00	204.91
858.00	208.09
859.00	208.15
860.00	204.34
861.00	213.08
862.00	212.53
863.00	208.97
864.00	207.81
865.00	205.78
866.00	206.12
867.00	216.59
868.00	217.04
869.00	215.18
870.00	206.75
871.00	210.75
872.00	208.98
873.00	201.36
874.00	203.88
875.00	204.93
876.00	207.48
877.00	209.78
878.00	203.25
879.00	207.64
880.00	203.96
881.00	207.87
882.00	206.14
883.00	204.10
884.00	202.00
885.00	205.70
886.00	206.74
887.00	205.40
888.00	208.25
889.00	208.28
890.00	204.65
891.00	205.86
892.00	206.46
893.00	203.84
894.00	203.52
895.00	206.80
896.00	206.78
897.00	204.58
898.00	201.31
899.00	202.34
900.00	206.44
901.00	203.61
902.00	202.26
903.00	211.13
904.00	201.20
905.00	203.07
906.00	205.59
907.00	205.40
908.00	205.44
909.00	204.15
910.00	206.78
911.00	207.76
912.00	225.10
913.00	391.51
914.00	313.08
915.00	268.24
916.00	242.85
917.00	224.98
918.00	202.86
919.00	207.89
920.00	203.77
921.00	205.35
922.00	209.76
923.00	231.90
924.00	224.22
925.00	221.41
926.00	211.00
927.00	209.64
928.00	202.82
929.00	213.27
930.00	203.55
931.00	207.19
932.00	202.86
933.00	206.10
934.00	201.78
935.00	200.59
936.00	202.72
937.00	199.01
938.00	202.97
939.00	209.48
940.00	200.95
941.00	207.80
942.00	208.04
943.00	203.08
944.00	201.64
945.00	212.99
946.00	203.82
947.00	202.08
948.00	202.12
949.00	196.90
950.00	197.65
951.00	203.55
952.00	203.94
953.00	196.87
954.00	201.62
955.00	202.21
956.00	208.23
957.00	205.69
958.00	209.19
959.00	204.91
960.00	202.50
961.00	203.05
962.00	205.69
963.00	203.42
964.00	205.32
965.00	202.70
966.00	206.84
967.00	211.81
968.00	214.00
969.00	208.79
970.00	207.12
971.00	211.22
972.00	205.75
973.00	205.51
974.00	204.06
975.00	203.05
976.00	204.62
977.00	201.47
978.00	206.08
979.00	202.75
980.00	204.01
981.00	205.69
982.00	198.92
983.00	204.07
984.00	201.69
985.00	207.56
986.00	207.22
987.00	204.37
988.00	203.25
989.00	202.80
990.00	205.35
991.00	201.58
992.00	202.63
993.00	204.72
994.00	209.89
995.00	201.86
996.00	204.85
997.00	201.99
998.00	206.30
999.00	200.82
1000.00	201.18
>>>>>End Processed Spectral Data<<<<<
