SpectraSuite Data File
++++++++++++++++++++++++++++++++++++
Date: Tue Oct 18 14:43:25 CDT 2011
User: Helimak
Dark Spectrum Present: No
Reference Spectrum Present: No
Number of Sampled Component Spectra: 1
Spectrometers: USB2G37154
Integration Time (usec): 200000 (USB2G37154)
Spectra Averaged: 1 (USB2G37154)
Boxcar Smoothing: 0 (USB2G37154)
Correct for Electrical Dark: No (USB2G37154)
Strobe/Lamp Enabled: No (USB2G37154)
Correct for Detector Non-linearity: No (USB2G37154)
Correct for Stray Light: No (USB2G37154)
Number of Pixels in Processed Spectrum: 651
>>>>>Begin Processed Spectral Data<<<<<
350.00	199.01
351.00	208.91
352.00	200.99
353.00	201.93
354.00	202.74
355.00	205.69
356.00	210.70
357.00	206.61
358.00	210.80
359.00	207.78
360.00	211.77
361.00	210.46
362.00	209.74
363.00	210.35
364.00	213.94
365.00	214.72
366.00	212.65
367.00	218.00
368.00	211.05
369.00	213.44
370.00	216.02
371.00	217.66
372.00	222.97
373.00	217.81
374.00	213.33
375.00	228.67
376.00	218.73
377.00	226.63
378.00	234.33
379.00	237.66
380.00	241.26
381.00	239.48
382.00	243.38
383.00	246.52
384.00	260.55
385.00	254.54
386.00	253.98
387.00	257.20
388.00	249.23
389.00	235.90
390.00	240.15
391.00	247.96
392.00	257.96
393.00	262.81
394.00	265.12
395.00	251.87
396.00	252.93
397.00	247.17
398.00	245.79
399.00	258.51
400.00	299.35
401.00	332.60
402.00	322.47
403.00	337.74
404.00	347.53
405.00	308.95
406.00	339.09
407.00	366.63
408.00	303.66
409.00	311.44
410.00	315.84
411.00	272.88
412.00	290.96
413.00	284.20
414.00	271.88
415.00	370.77
416.00	331.71
417.00	305.85
418.00	342.51
419.00	513.98
420.00	416.75
421.00	310.29
422.00	380.38
423.00	336.68
424.00	309.85
425.00	459.42
426.00	604.65
427.00	610.69
428.00	426.70
429.00	396.86
430.00	367.23
431.00	327.89
432.00	427.14
433.00	552.35
434.00	1557.48
435.00	893.47
436.00	533.19
437.00	470.64
438.00	382.69
439.00	513.79
440.00	449.62
441.00	437.43
442.00	963.19
443.00	576.03
444.00	351.26
445.00	279.92
446.00	277.28
447.00	337.91
448.00	326.89
449.00	294.11
450.00	327.60
451.00	329.14
452.00	320.30
453.00	354.13
454.00	498.59
455.00	402.05
456.00	370.16
457.00	472.40
458.00	678.07
459.00	539.44
460.00	924.73
461.00	621.17
462.00	395.90
463.00	320.28
464.00	316.55
465.00	435.81
466.00	353.88
467.00	311.11
468.00	305.39
469.00	306.78
470.00	313.55
471.00	321.21
472.00	491.71
473.00	556.39
474.00	378.14
475.00	342.01
476.00	530.72
477.00	362.09
478.00	295.89
479.00	330.29
480.00	1116.97
481.00	555.50
482.00	355.18
483.00	310.48
484.00	473.05
485.00	495.13
486.00	518.70
487.00	1412.10
488.00	1114.33
489.00	576.24
490.00	388.74
491.00	347.33
492.00	351.74
493.00	392.01
494.00	330.74
495.00	330.40
496.00	498.22
497.00	376.98
498.00	320.94
499.00	313.18
500.00	462.95
501.00	541.90
502.00	388.09
503.00	331.15
504.00	366.76
505.00	422.58
506.00	458.60
507.00	419.03
508.00	397.44
509.00	365.90
510.00	326.67
511.00	315.03
512.00	326.82
513.00	350.34
514.00	509.65
515.00	373.92
516.00	345.49
517.00	314.82
518.00	362.82
519.00	336.83
520.00	305.92
521.00	320.41
522.00	320.91
523.00	299.07
524.00	302.88
525.00	330.39
526.00	316.32
527.00	301.44
528.00	295.21
529.00	297.74
530.00	291.61
531.00	298.78
532.00	321.79
533.00	331.13
534.00	329.70
535.00	341.10
536.00	337.22
537.00	338.24
538.00	324.96
539.00	324.04
540.00	316.11
541.00	312.86
542.00	329.96
543.00	325.64
544.00	325.02
545.00	358.24
546.00	341.69
547.00	354.25
548.00	333.68
549.00	407.21
550.00	389.53
551.00	352.93
552.00	332.97
553.00	322.29
554.00	310.07
555.00	351.61
556.00	368.18
557.00	338.06
558.00	297.77
559.00	302.09
560.00	335.21
561.00	313.90
562.00	290.76
563.00	283.80
564.00	299.02
565.00	329.25
566.00	315.79
567.00	324.93
568.00	325.27
569.00	318.47
570.00	318.83
571.00	311.85
572.00	283.03
573.00	295.56
574.00	317.50
575.00	288.93
576.00	278.05
577.00	298.19
578.00	288.23
579.00	276.04
580.00	289.68
581.00	271.20
582.00	261.78
583.00	284.03
584.00	279.61
585.00	263.75
586.00	280.83
587.00	279.13
588.00	319.41
589.00	346.88
590.00	298.92
591.00	301.67
592.00	287.69
593.00	299.94
594.00	282.01
595.00	261.15
596.00	260.16
597.00	269.72
598.00	276.35
599.00	283.43
600.00	295.23
601.00	301.40
602.00	307.62
603.00	507.67
604.00	438.05
605.00	358.73
606.00	323.94
607.00	275.01
608.00	250.76
609.00	256.90
610.00	288.87
611.00	365.89
612.00	350.79
613.00	282.82
614.00	278.57
615.00	294.42
616.00	285.21
617.00	369.84
618.00	302.47
619.00	280.66
620.00	263.87
621.00	285.34
622.00	276.09
623.00	259.01
624.00	295.17
625.00	296.99
626.00	284.01
627.00	274.07
628.00	276.95
629.00	282.55
630.00	288.65
631.00	294.22
632.00	260.76
633.00	255.35
634.00	243.63
635.00	246.98
636.00	249.62
637.00	257.51
638.00	255.45
639.00	259.29
640.00	268.73
641.00	285.57
642.00	326.86
643.00	271.66
644.00	258.81
645.00	253.92
646.00	260.16
647.00	261.78
648.00	268.77
649.00	260.16
650.00	248.74
651.00	245.48
652.00	245.76
653.00	244.89
654.00	254.55
655.00	253.03
656.00	508.88
657.00	458.46
658.00	324.97
659.00	261.05
660.00	251.22
661.00	243.99
662.00	234.77
663.00	232.50
664.00	317.20
665.00	306.96
666.00	256.18
667.00	245.29
668.00	270.96
669.00	277.28
670.00	241.87
671.00	239.05
672.00	235.09
673.00	236.01
674.00	234.97
675.00	306.80
676.00	332.92
677.00	258.01
678.00	238.24
679.00	228.77
680.00	224.47
681.00	230.46
682.00	233.02
683.00	224.41
684.00	229.79
685.00	229.59
686.00	235.01
687.00	276.77
688.00	274.14
689.00	266.83
690.00	236.73
691.00	229.41
692.00	230.28
693.00	234.60
694.00	276.61
695.00	261.96
696.00	320.02
697.00	593.31
698.00	335.19
699.00	267.50
700.00	242.96
701.00	237.73
702.00	234.58
703.00	293.99
704.00	283.36
705.00	250.58
706.00	239.07
707.00	470.42
708.00	328.66
709.00	252.77
710.00	224.48
711.00	235.03
712.00	230.51
713.00	226.10
714.00	226.02
715.00	251.41
716.00	244.19
717.00	224.71
718.00	219.25
719.00	219.13
720.00	224.81
721.00	230.70
722.00	224.95
723.00	225.20
724.00	232.53
725.00	246.22
726.00	233.50
727.00	250.55
728.00	290.96
729.00	249.02
730.00	223.63
731.00	226.16
732.00	232.45
733.00	222.11
734.00	219.72
735.00	235.48
736.00	262.80
737.00	279.04
738.00	382.55
739.00	564.01
740.00	331.01
741.00	253.30
742.00	228.04
743.00	231.97
744.00	242.83
745.00	237.35
746.00	216.40
747.00	219.18
748.00	216.15
749.00	229.73
750.00	358.03
751.00	1186.85
752.00	892.56
753.00	447.69
754.00	274.77
755.00	224.24
756.00	219.17
757.00	217.76
758.00	223.07
759.00	220.42
760.00	220.18
761.00	224.60
762.00	221.88
763.00	289.19
764.00	1973.99
765.00	926.51
766.00	456.03
767.00	253.96
768.00	218.37
769.00	213.42
770.00	211.75
771.00	215.80
772.00	240.57
773.00	564.60
774.00	346.07
775.00	265.90
776.00	223.80
777.00	246.65
778.00	464.09
779.00	311.73
780.00	246.10
781.00	213.72
782.00	209.47
783.00	209.46
784.00	215.10
785.00	216.03
786.00	220.56
787.00	225.67
788.00	217.17
789.00	225.98
790.00	235.83
791.00	230.39
792.00	222.70
793.00	223.59
794.00	219.15
795.00	466.49
796.00	496.30
797.00	305.48
798.00	250.10
799.00	216.63
800.00	219.44
801.00	438.26
802.00	751.17
803.00	464.98
804.00	297.01
805.00	235.44
806.00	222.34
807.00	213.02
808.00	222.43
809.00	227.70
810.00	244.59
811.00	682.88
812.00	3624.15
813.00	2187.55
814.00	841.33
815.00	431.21
816.00	239.75
817.00	218.33
818.00	216.42
819.00	216.15
820.00	212.43
821.00	206.11
822.00	208.95
823.00	208.07
824.00	208.30
825.00	217.78
826.00	218.08
827.00	373.42
828.00	297.54
829.00	238.09
830.00	225.44
831.00	208.77
832.00	210.75
833.00	209.99
834.00	210.20
835.00	211.69
836.00	212.36
837.00	214.51
838.00	213.08
839.00	206.92
840.00	216.10
841.00	341.46
842.00	415.46
843.00	739.46
844.00	480.40
845.00	319.64
846.00	269.43
847.00	219.58
848.00	212.06
849.00	207.07
850.00	210.07
851.00	207.01
852.00	219.28
853.00	336.40
854.00	243.25
855.00	226.42
856.00	224.43
857.00	207.87
858.00	209.89
859.00	205.26
860.00	203.94
861.00	213.85
862.00	209.10
863.00	210.02
864.00	211.60
865.00	211.71
866.00	207.76
867.00	218.30
868.00	223.03
869.00	213.58
870.00	212.03
871.00	208.20
872.00	205.06
873.00	209.68
874.00	208.40
875.00	208.86
876.00	209.41
877.00	206.18
878.00	207.74
879.00	206.62
880.00	208.85
881.00	206.46
882.00	208.26
883.00	202.75
884.00	206.99
885.00	214.16
886.00	207.73
887.00	209.04
888.00	210.91
889.00	205.44
890.00	206.95
891.00	208.01
892.00	204.19
893.00	202.22
894.00	203.08
895.00	207.92
896.00	207.61
897.00	203.14
898.00	201.91
899.00	212.58
900.00	204.99
901.00	209.01
902.00	206.22
903.00	208.81
904.00	204.08
905.00	207.13
906.00	210.26
907.00	209.75
908.00	209.03
909.00	204.57
910.00	206.95
911.00	208.83
912.00	238.30
913.00	449.35
914.00	350.01
915.00	281.67
916.00	246.06
917.00	224.89
918.00	207.93
919.00	205.33
920.00	206.71
921.00	212.82
922.00	207.74
923.00	240.79
924.00	229.26
925.00	223.47
926.00	210.99
927.00	211.14
928.00	204.51
929.00	208.31
930.00	207.81
931.00	204.52
932.00	204.75
933.00	206.95
934.00	199.38
935.00	200.92
936.00	205.74
937.00	199.98
938.00	207.96
939.00	203.24
940.00	205.38
941.00	207.73
942.00	205.86
943.00	204.53
944.00	204.08
945.00	210.94
946.00	205.03
947.00	206.98
948.00	205.86
949.00	206.20
950.00	205.56
951.00	204.59
952.00	204.06
953.00	204.33
954.00	200.54
955.00	207.62
956.00	206.55
957.00	206.42
958.00	205.24
959.00	205.94
960.00	203.10
961.00	202.25
962.00	205.91
963.00	204.39
964.00	206.70
965.00	203.43
966.00	206.08
967.00	215.64
968.00	216.95
969.00	212.17
970.00	207.08
971.00	204.91
972.00	206.39
973.00	205.97
974.00	204.59
975.00	205.75
976.00	208.18
977.00	203.11
978.00	202.83
979.00	203.85
980.00	200.49
981.00	200.38
982.00	206.56
983.00	208.58
984.00	203.12
985.00	212.09
986.00	207.42
987.00	205.63
988.00	203.78
989.00	201.82
990.00	203.23
991.00	202.52
992.00	199.96
993.00	201.43
994.00	205.32
995.00	204.28
996.00	202.95
997.00	204.10
998.00	201.79
999.00	208.44
1000.00	201.00
>>>>>End Processed Spectral Data<<<<<
