SpectraSuite Data File
++++++++++++++++++++++++++++++++++++
Date: Tue Oct 18 14:28:37 CDT 2011
User: Helimak
Dark Spectrum Present: No
Reference Spectrum Present: No
Number of Sampled Component Spectra: 1
Spectrometers: USB2G37154
Integration Time (usec): 200000 (USB2G37154)
Spectra Averaged: 1 (USB2G37154)
Boxcar Smoothing: 0 (USB2G37154)
Correct for Electrical Dark: No (USB2G37154)
Strobe/Lamp Enabled: No (USB2G37154)
Correct for Detector Non-linearity: No (USB2G37154)
Correct for Stray Light: No (USB2G37154)
Number of Pixels in Processed Spectrum: 651
>>>>>Begin Processed Spectral Data<<<<<
350.00	207.55
351.00	209.68
352.00	201.94
353.00	206.41
354.00	204.54
355.00	204.73
356.00	206.25
357.00	205.74
358.00	211.81
359.00	207.15
360.00	206.70
361.00	207.86
362.00	207.93
363.00	208.20
364.00	214.71
365.00	205.44
366.00	205.90
367.00	207.73
368.00	208.22
369.00	216.62
370.00	211.03
371.00	212.87
372.00	218.13
373.00	217.94
374.00	213.34
375.00	215.75
376.00	214.28
377.00	222.04
378.00	222.40
379.00	222.80
380.00	230.85
381.00	230.15
382.00	228.32
383.00	240.76
384.00	244.87
385.00	250.16
386.00	240.91
387.00	236.79
388.00	234.26
389.00	227.29
390.00	229.30
391.00	231.48
392.00	236.63
393.00	246.12
394.00	247.44
395.00	237.37
396.00	234.01
397.00	237.67
398.00	232.16
399.00	241.17
400.00	265.06
401.00	285.91
402.00	281.88
403.00	290.95
404.00	305.31
405.00	276.91
406.00	297.04
407.00	313.31
408.00	267.87
409.00	272.45
410.00	273.98
411.00	253.81
412.00	259.75
413.00	261.97
414.00	247.05
415.00	318.98
416.00	291.84
417.00	271.43
418.00	309.13
419.00	427.13
420.00	353.89
421.00	281.13
422.00	320.23
423.00	288.15
424.00	274.27
425.00	379.86
426.00	462.45
427.00	463.91
428.00	349.51
429.00	338.82
430.00	307.11
431.00	283.60
432.00	345.41
433.00	434.75
434.00	1034.94
435.00	626.63
436.00	415.46
437.00	368.45
438.00	322.33
439.00	393.40
440.00	362.34
441.00	356.52
442.00	661.10
443.00	434.04
444.00	295.67
445.00	253.12
446.00	259.91
447.00	295.46
448.00	288.39
449.00	272.06
450.00	287.58
451.00	288.18
452.00	288.85
453.00	308.22
454.00	402.02
455.00	336.60
456.00	323.62
457.00	380.54
458.00	503.27
459.00	407.81
460.00	640.44
461.00	469.33
462.00	332.74
463.00	286.38
464.00	272.39
465.00	359.97
466.00	321.54
467.00	284.05
468.00	277.23
469.00	280.45
470.00	283.31
471.00	280.38
472.00	389.93
473.00	426.36
474.00	322.11
475.00	301.95
476.00	426.84
477.00	307.53
478.00	273.11
479.00	290.77
480.00	768.32
481.00	427.26
482.00	309.47
483.00	278.62
484.00	376.55
485.00	407.70
486.00	406.52
487.00	957.59
488.00	781.20
489.00	442.11
490.00	341.57
491.00	309.08
492.00	314.71
493.00	340.12
494.00	295.83
495.00	296.66
496.00	407.04
497.00	333.83
498.00	289.02
499.00	293.17
500.00	368.50
501.00	432.98
502.00	332.06
503.00	293.73
504.00	324.96
505.00	365.85
506.00	384.10
507.00	362.30
508.00	350.18
509.00	322.22
510.00	297.90
511.00	294.05
512.00	297.39
513.00	307.10
514.00	402.15
515.00	325.00
516.00	313.19
517.00	291.08
518.00	316.91
519.00	304.06
520.00	276.93
521.00	284.71
522.00	293.51
523.00	280.48
524.00	281.48
525.00	297.90
526.00	286.47
527.00	276.04
528.00	277.23
529.00	271.64
530.00	278.17
531.00	277.10
532.00	292.27
533.00	297.12
534.00	302.00
535.00	310.28
536.00	302.44
537.00	303.73
538.00	296.98
539.00	295.08
540.00	285.43
541.00	291.99
542.00	296.54
543.00	290.48
544.00	299.70
545.00	309.70
546.00	310.71
547.00	321.97
548.00	297.24
549.00	350.08
550.00	337.07
551.00	314.93
552.00	304.41
553.00	297.98
554.00	289.84
555.00	314.22
556.00	331.73
557.00	306.21
558.00	272.33
559.00	277.90
560.00	308.82
561.00	288.47
562.00	269.76
563.00	266.11
564.00	274.19
565.00	293.19
566.00	288.93
567.00	290.50
568.00	301.98
569.00	295.71
570.00	291.33
571.00	286.52
572.00	264.80
573.00	271.40
574.00	280.65
575.00	264.54
576.00	269.33
577.00	270.62
578.00	269.62
579.00	262.67
580.00	273.79
581.00	251.49
582.00	250.78
583.00	261.18
584.00	257.24
585.00	257.45
586.00	266.22
587.00	264.02
588.00	288.18
589.00	303.32
590.00	275.16
591.00	281.97
592.00	266.84
593.00	276.38
594.00	263.04
595.00	251.36
596.00	246.23
597.00	254.59
598.00	266.80
599.00	274.03
600.00	275.98
601.00	280.04
602.00	282.86
603.00	437.43
604.00	377.20
605.00	320.44
606.00	291.69
607.00	262.24
608.00	242.20
609.00	242.96
610.00	269.19
611.00	318.44
612.00	305.45
613.00	258.88
614.00	261.29
615.00	264.42
616.00	264.12
617.00	320.91
618.00	273.71
619.00	266.22
620.00	251.21
621.00	272.54
622.00	260.78
623.00	242.78
624.00	269.70
625.00	272.29
626.00	264.23
627.00	267.70
628.00	259.61
629.00	267.64
630.00	265.73
631.00	269.59
632.00	248.01
633.00	241.58
634.00	242.90
635.00	239.98
636.00	241.23
637.00	248.56
638.00	246.91
639.00	247.56
640.00	254.13
641.00	268.62
642.00	291.71
643.00	261.37
644.00	249.27
645.00	247.43
646.00	255.94
647.00	254.92
648.00	247.97
649.00	252.08
650.00	237.17
651.00	235.06
652.00	238.18
653.00	239.12
654.00	246.21
655.00	238.56
656.00	430.93
657.00	387.23
658.00	284.98
659.00	240.64
660.00	249.46
661.00	239.27
662.00	224.71
663.00	225.63
664.00	282.33
665.00	276.33
666.00	238.24
667.00	235.78
668.00	248.97
669.00	254.93
670.00	227.16
671.00	229.40
672.00	229.17
673.00	232.05
674.00	223.85
675.00	279.55
676.00	294.38
677.00	239.38
678.00	225.11
679.00	223.92
680.00	219.74
681.00	226.25
682.00	225.70
683.00	221.70
684.00	224.90
685.00	227.10
686.00	222.00
687.00	258.73
688.00	252.71
689.00	251.25
690.00	227.56
691.00	225.29
692.00	225.81
693.00	222.00
694.00	261.28
695.00	245.10
696.00	294.02
697.00	500.86
698.00	299.77
699.00	249.63
700.00	234.49
701.00	227.74
702.00	233.88
703.00	277.15
704.00	260.56
705.00	235.85
706.00	231.67
707.00	399.33
708.00	295.42
709.00	246.24
710.00	218.11
711.00	226.94
712.00	223.57
713.00	222.01
714.00	218.96
715.00	244.57
716.00	235.04
717.00	222.46
718.00	219.31
719.00	216.60
720.00	219.03
721.00	230.13
722.00	225.97
723.00	226.20
724.00	225.15
725.00	240.23
726.00	219.52
727.00	241.13
728.00	275.83
729.00	231.37
730.00	221.00
731.00	224.97
732.00	223.10
733.00	217.29
734.00	219.51
735.00	228.79
736.00	245.15
737.00	266.31
738.00	340.17
739.00	466.88
740.00	297.85
741.00	238.33
742.00	220.02
743.00	218.98
744.00	231.95
745.00	231.88
746.00	212.54
747.00	214.98
748.00	217.13
749.00	226.52
750.00	324.62
751.00	919.85
752.00	703.07
753.00	382.12
754.00	255.95
755.00	216.58
756.00	216.60
757.00	216.80
758.00	217.27
759.00	224.24
760.00	219.04
761.00	215.09
762.00	220.82
763.00	279.98
764.00	1513.71
765.00	745.50
766.00	384.97
767.00	245.84
768.00	213.57
769.00	214.02
770.00	210.08
771.00	205.92
772.00	234.91
773.00	475.89
774.00	306.45
775.00	247.44
776.00	216.54
777.00	236.28
778.00	389.04
779.00	277.98
780.00	230.72
781.00	207.92
782.00	210.10
783.00	213.09
784.00	206.74
785.00	210.29
786.00	216.60
787.00	215.06
788.00	222.69
789.00	223.97
790.00	228.86
791.00	221.47
792.00	220.66
793.00	216.38
794.00	217.91
795.00	398.21
796.00	405.59
797.00	275.57
798.00	241.59
799.00	216.54
800.00	212.51
801.00	378.90
802.00	612.30
803.00	392.70
804.00	276.30
805.00	231.60
806.00	214.53
807.00	213.90
808.00	214.68
809.00	217.85
810.00	239.05
811.00	575.78
812.00	2921.95
813.00	1719.09
814.00	680.87
815.00	386.97
816.00	229.69
817.00	219.45
818.00	212.02
819.00	216.73
820.00	208.73
821.00	204.95
822.00	214.52
823.00	208.33
824.00	206.46
825.00	216.90
826.00	210.12
827.00	333.68
828.00	266.72
829.00	227.73
830.00	214.71
831.00	211.47
832.00	207.14
833.00	210.44
834.00	211.10
835.00	211.93
836.00	207.92
837.00	208.61
838.00	210.90
839.00	205.88
840.00	212.12
841.00	310.69
842.00	351.39
843.00	594.72
844.00	406.09
845.00	296.57
846.00	253.01
847.00	217.05
848.00	208.44
849.00	208.03
850.00	206.10
851.00	204.26
852.00	220.83
853.00	303.46
854.00	235.62
855.00	221.23
856.00	218.88
857.00	208.27
858.00	208.39
859.00	205.14
860.00	207.71
861.00	212.52
862.00	210.82
863.00	206.35
864.00	209.12
865.00	210.51
866.00	208.22
867.00	217.00
868.00	215.02
869.00	212.51
870.00	211.69
871.00	207.84
872.00	203.98
873.00	208.86
874.00	208.69
875.00	206.97
876.00	205.22
877.00	211.63
878.00	205.80
879.00	207.70
880.00	206.98
881.00	206.89
882.00	204.00
883.00	203.47
884.00	207.00
885.00	202.73
886.00	204.16
887.00	207.25
888.00	204.00
889.00	206.48
890.00	209.77
891.00	207.75
892.00	208.31
893.00	205.07
894.00	200.71
895.00	205.72
896.00	203.38
897.00	203.04
898.00	202.74
899.00	205.48
900.00	203.97
901.00	204.47
902.00	209.99
903.00	210.58
904.00	203.28
905.00	206.08
906.00	208.81
907.00	206.65
908.00	201.50
909.00	206.09
910.00	205.99
911.00	211.03
912.00	228.03
913.00	393.50
914.00	313.29
915.00	258.92
916.00	239.65
917.00	216.53
918.00	207.57
919.00	207.93
920.00	207.19
921.00	209.47
922.00	204.29
923.00	231.86
924.00	227.79
925.00	214.12
926.00	210.00
927.00	209.80
928.00	206.71
929.00	205.68
930.00	207.43
931.00	205.00
932.00	204.73
933.00	202.16
934.00	201.23
935.00	204.49
936.00	204.89
937.00	203.84
938.00	202.39
939.00	205.97
940.00	204.48
941.00	204.58
942.00	206.09
943.00	202.89
944.00	203.85
945.00	212.24
946.00	203.51
947.00	203.98
948.00	203.53
949.00	205.86
950.00	207.13
951.00	203.53
952.00	206.00
953.00	208.90
954.00	200.90
955.00	205.42
956.00	204.65
957.00	203.12
958.00	203.83
959.00	202.95
960.00	205.04
961.00	203.62
962.00	203.10
963.00	204.76
964.00	204.74
965.00	203.20
966.00	208.07
967.00	208.95
968.00	216.01
969.00	206.99
970.00	206.84
971.00	207.00
972.00	205.09
973.00	205.19
974.00	203.46
975.00	206.15
976.00	207.78
977.00	198.50
978.00	203.84
979.00	204.02
980.00	205.09
981.00	203.62
982.00	202.67
983.00	208.20
984.00	202.62
985.00	204.08
986.00	205.89
987.00	203.70
988.00	206.20
989.00	207.11
990.00	205.51
991.00	206.29
992.00	206.60
993.00	204.97
994.00	203.90
995.00	204.58
996.00	201.77
997.00	204.34
998.00	204.25
999.00	202.36
1000.00	204.83
>>>>>End Processed Spectral Data<<<<<
