SpectraSuite Data File
++++++++++++++++++++++++++++++++++++
Date: Tue Oct 18 14:45:26 CDT 2011
User: Helimak
Dark Spectrum Present: No
Reference Spectrum Present: No
Number of Sampled Component Spectra: 1
Spectrometers: USB2G37154
Integration Time (usec): 200000 (USB2G37154)
Spectra Averaged: 1 (USB2G37154)
Boxcar Smoothing: 0 (USB2G37154)
Correct for Electrical Dark: No (USB2G37154)
Strobe/Lamp Enabled: No (USB2G37154)
Correct for Detector Non-linearity: No (USB2G37154)
Correct for Stray Light: No (USB2G37154)
Number of Pixels in Processed Spectrum: 651
>>>>>Begin Processed Spectral Data<<<<<
350.00	202.09
351.00	205.16
352.00	202.29
353.00	201.72
354.00	205.06
355.00	205.06
356.00	203.02
357.00	201.73
358.00	207.55
359.00	205.17
360.00	204.88
361.00	203.90
362.00	210.31
363.00	203.42
364.00	209.86
365.00	206.20
366.00	204.01
367.00	206.76
368.00	209.02
369.00	204.76
370.00	206.04
371.00	205.82
372.00	214.41
373.00	210.06
374.00	207.09
375.00	214.69
376.00	211.93
377.00	213.70
378.00	216.10
379.00	217.91
380.00	217.31
381.00	218.27
382.00	222.95
383.00	221.77
384.00	221.87
385.00	223.51
386.00	226.96
387.00	226.58
388.00	222.45
389.00	218.53
390.00	219.20
391.00	221.48
392.00	228.89
393.00	230.42
394.00	234.35
395.00	226.66
396.00	223.02
397.00	219.86
398.00	220.79
399.00	226.77
400.00	238.84
401.00	249.74
402.00	253.95
403.00	263.15
404.00	263.32
405.00	244.72
406.00	257.03
407.00	259.83
408.00	242.53
409.00	243.24
410.00	250.14
411.00	235.40
412.00	238.03
413.00	236.18
414.00	232.26
415.00	277.37
416.00	261.70
417.00	244.71
418.00	270.53
419.00	361.28
420.00	304.26
421.00	250.89
422.00	270.24
423.00	253.69
424.00	249.70
425.00	323.12
426.00	368.18
427.00	360.66
428.00	291.63
429.00	282.15
430.00	277.42
431.00	258.65
432.00	292.17
433.00	343.80
434.00	634.58
435.00	429.03
436.00	315.13
437.00	304.49
438.00	267.89
439.00	312.88
440.00	294.27
441.00	285.74
442.00	438.69
443.00	320.93
444.00	257.03
445.00	237.00
446.00	243.57
447.00	250.78
448.00	245.08
449.00	244.06
450.00	262.40
451.00	260.86
452.00	258.98
453.00	267.29
454.00	320.24
455.00	281.67
456.00	278.66
457.00	303.84
458.00	378.60
459.00	324.24
460.00	445.34
461.00	349.60
462.00	277.89
463.00	256.39
464.00	250.98
465.00	294.71
466.00	267.91
467.00	251.10
468.00	251.06
469.00	259.61
470.00	259.00
471.00	255.43
472.00	306.90
473.00	315.16
474.00	270.61
475.00	261.42
476.00	320.27
477.00	272.76
478.00	248.26
479.00	256.37
480.00	481.97
481.00	324.24
482.00	269.72
483.00	258.72
484.00	301.29
485.00	324.13
486.00	332.48
487.00	598.66
488.00	514.41
489.00	343.64
490.00	286.63
491.00	278.88
492.00	269.15
493.00	284.46
494.00	264.19
495.00	259.95
496.00	315.68
497.00	277.93
498.00	261.73
499.00	262.18
500.00	304.86
501.00	330.12
502.00	278.03
503.00	262.75
504.00	281.04
505.00	297.96
506.00	312.21
507.00	303.08
508.00	296.31
509.00	275.70
510.00	264.90
511.00	260.00
512.00	258.43
513.00	270.44
514.00	319.43
515.00	284.41
516.00	274.23
517.00	258.59
518.00	282.87
519.00	271.83
520.00	252.07
521.00	258.44
522.00	262.98
523.00	251.48
524.00	252.02
525.00	266.98
526.00	263.72
527.00	253.60
528.00	253.37
529.00	250.07
530.00	245.15
531.00	255.34
532.00	258.26
533.00	270.68
534.00	274.95
535.00	274.45
536.00	263.08
537.00	270.20
538.00	268.41
539.00	265.83
540.00	258.56
541.00	258.44
542.00	267.34
543.00	253.59
544.00	269.97
545.00	277.99
546.00	275.79
547.00	283.03
548.00	268.35
549.00	308.35
550.00	298.18
551.00	281.96
552.00	269.22
553.00	266.03
554.00	264.36
555.00	282.25
556.00	296.17
557.00	282.42
558.00	253.79
559.00	249.37
560.00	274.65
561.00	255.24
562.00	245.93
563.00	247.05
564.00	250.36
565.00	266.34
566.00	257.89
567.00	265.48
568.00	268.12
569.00	265.00
570.00	262.10
571.00	254.61
572.00	246.68
573.00	251.26
574.00	261.57
575.00	246.46
576.00	240.55
577.00	253.06
578.00	247.83
579.00	246.61
580.00	249.20
581.00	236.30
582.00	231.49
583.00	243.34
584.00	242.55
585.00	239.32
586.00	246.08
587.00	247.97
588.00	264.34
589.00	278.93
590.00	250.48
591.00	257.31
592.00	248.97
593.00	250.70
594.00	244.05
595.00	229.87
596.00	234.29
597.00	237.28
598.00	244.68
599.00	251.80
600.00	251.77
601.00	254.39
602.00	262.43
603.00	361.99
604.00	326.64
605.00	277.35
606.00	261.99
607.00	241.31
608.00	236.87
609.00	225.94
610.00	248.26
611.00	274.11
612.00	261.63
613.00	243.16
614.00	240.39
615.00	244.44
616.00	242.88
617.00	281.96
618.00	250.93
619.00	245.59
620.00	233.92
621.00	249.73
622.00	245.04
623.00	232.24
624.00	246.17
625.00	248.80
626.00	242.42
627.00	240.83
628.00	240.86
629.00	249.22
630.00	244.86
631.00	247.45
632.00	231.21
633.00	230.68
634.00	227.11
635.00	227.88
636.00	231.02
637.00	230.57
638.00	230.98
639.00	232.75
640.00	241.87
641.00	246.26
642.00	261.56
643.00	239.08
644.00	233.13
645.00	233.20
646.00	236.99
647.00	226.70
648.00	234.58
649.00	232.22
650.00	224.23
651.00	223.84
652.00	219.12
653.00	225.01
654.00	231.46
655.00	228.55
656.00	328.63
657.00	309.32
658.00	255.99
659.00	224.43
660.00	223.70
661.00	220.08
662.00	215.14
663.00	217.56
664.00	250.25
665.00	244.09
666.00	227.98
667.00	226.51
668.00	229.62
669.00	228.52
670.00	224.74
671.00	222.34
672.00	220.39
673.00	221.06
674.00	219.24
675.00	253.86
676.00	262.09
677.00	230.71
678.00	219.42
679.00	214.39
680.00	217.56
681.00	220.27
682.00	221.21
683.00	214.29
684.00	221.24
685.00	220.16
686.00	217.42
687.00	242.18
688.00	235.68
689.00	234.69
690.00	216.02
691.00	216.45
692.00	222.20
693.00	215.71
694.00	242.23
695.00	234.93
696.00	267.01
697.00	398.86
698.00	262.56
699.00	236.45
700.00	219.97
701.00	221.47
702.00	222.49
703.00	250.12
704.00	244.10
705.00	224.20
706.00	215.47
707.00	334.16
708.00	262.89
709.00	230.39
710.00	213.87
711.00	218.37
712.00	215.88
713.00	222.87
714.00	218.59
715.00	228.62
716.00	225.92
717.00	222.02
718.00	214.90
719.00	211.26
720.00	211.14
721.00	215.74
722.00	218.84
723.00	220.41
724.00	217.87
725.00	232.05
726.00	215.10
727.00	226.80
728.00	249.25
729.00	222.16
730.00	216.79
731.00	216.21
732.00	216.20
733.00	211.90
734.00	215.71
735.00	220.52
736.00	233.02
737.00	245.45
738.00	299.87
739.00	374.52
740.00	261.57
741.00	221.77
742.00	210.96
743.00	217.00
744.00	224.93
745.00	225.41
746.00	209.99
747.00	212.86
748.00	213.91
749.00	216.41
750.00	281.93
751.00	665.44
752.00	532.14
753.00	324.30
754.00	237.77
755.00	212.31
756.00	210.31
757.00	206.85
758.00	215.58
759.00	215.90
760.00	213.86
761.00	212.05
762.00	213.44
763.00	253.40
764.00	1057.13
765.00	555.14
766.00	322.23
767.00	228.47
768.00	210.79
769.00	210.31
770.00	207.56
771.00	208.18
772.00	225.16
773.00	381.93
774.00	270.84
775.00	235.83
776.00	214.84
777.00	219.83
778.00	303.03
779.00	246.81
780.00	217.45
781.00	209.89
782.00	203.87
783.00	204.50
784.00	209.85
785.00	207.37
786.00	209.04
787.00	213.05
788.00	207.61
789.00	213.96
790.00	216.74
791.00	214.35
792.00	212.92
793.00	213.19
794.00	217.31
795.00	331.17
796.00	344.63
797.00	249.85
798.00	226.54
799.00	211.60
800.00	209.04
801.00	320.92
802.00	475.28
803.00	327.06
804.00	246.33
805.00	218.58
806.00	216.06
807.00	207.96
808.00	214.78
809.00	213.58
810.00	226.51
811.00	449.29
812.00	2051.42
813.00	1208.72
814.00	516.96
815.00	319.39
816.00	219.37
817.00	214.92
818.00	207.41
819.00	206.93
820.00	208.01
821.00	206.14
822.00	209.67
823.00	205.33
824.00	205.34
825.00	213.33
826.00	208.87
827.00	286.24
828.00	249.27
829.00	220.23
830.00	211.88
831.00	208.43
832.00	207.06
833.00	207.90
834.00	202.89
835.00	208.04
836.00	205.13
837.00	208.47
838.00	209.27
839.00	207.87
840.00	209.21
841.00	266.34
842.00	305.10
843.00	471.00
844.00	335.64
845.00	260.67
846.00	231.63
847.00	211.82
848.00	205.14
849.00	202.94
850.00	204.57
851.00	201.56
852.00	216.32
853.00	272.32
854.00	224.65
855.00	213.62
856.00	218.67
857.00	206.98
858.00	208.96
859.00	203.94
860.00	208.31
861.00	211.16
862.00	205.44
863.00	204.56
864.00	208.58
865.00	208.31
866.00	205.16
867.00	210.92
868.00	210.02
869.00	210.65
870.00	206.46
871.00	205.40
872.00	208.05
873.00	203.56
874.00	203.79
875.00	198.93
876.00	207.15
877.00	205.43
878.00	204.08
879.00	211.66
880.00	206.94
881.00	206.55
882.00	202.13
883.00	196.95
884.00	203.00
885.00	201.42
886.00	206.46
887.00	205.86
888.00	203.44
889.00	203.83
890.00	205.53
891.00	205.38
892.00	204.60
893.00	203.23
894.00	203.22
895.00	209.78
896.00	202.51
897.00	206.12
898.00	208.65
899.00	203.39
900.00	203.03
901.00	200.45
902.00	200.65
903.00	209.01
904.00	204.39
905.00	203.91
906.00	208.23
907.00	205.76
908.00	203.97
909.00	204.88
910.00	205.76
911.00	203.18
912.00	219.78
913.00	330.65
914.00	272.77
915.00	239.17
916.00	227.89
917.00	213.58
918.00	207.50
919.00	207.41
920.00	205.74
921.00	208.67
922.00	204.29
923.00	217.96
924.00	219.18
925.00	209.75
926.00	209.99
927.00	209.88
928.00	203.29
929.00	204.21
930.00	205.96
931.00	207.15
932.00	206.75
933.00	203.36
934.00	207.18
935.00	201.06
936.00	202.49
937.00	203.05
938.00	206.16
939.00	207.46
940.00	205.56
941.00	204.15
942.00	207.04
943.00	200.54
944.00	203.13
945.00	210.25
946.00	204.63
947.00	207.98
948.00	201.05
949.00	201.93
950.00	206.70
951.00	205.16
952.00	205.04
953.00	203.08
954.00	196.88
955.00	206.85
956.00	202.23
957.00	202.72
958.00	213.12
959.00	206.93
960.00	201.80
961.00	203.32
962.00	202.18
963.00	200.41
964.00	205.01
965.00	201.40
966.00	204.53
967.00	208.35
968.00	209.97
969.00	207.65
970.00	205.54
971.00	205.03
972.00	205.77
973.00	204.82
974.00	202.58
975.00	199.52
976.00	205.91
977.00	202.72
978.00	203.83
979.00	208.10
980.00	208.85
981.00	205.06
982.00	205.62
983.00	205.43
984.00	199.51
985.00	202.45
986.00	205.57
987.00	204.69
988.00	197.43
989.00	202.97
990.00	207.55
991.00	203.53
992.00	203.66
993.00	202.29
994.00	200.62
995.00	201.35
996.00	202.81
997.00	206.70
998.00	204.07
999.00	207.38
1000.00	206.01
>>>>>End Processed Spectral Data<<<<<
