SpectraSuite Data File
++++++++++++++++++++++++++++++++++++
Date: Tue Oct 18 14:30:41 CDT 2011
User: Helimak
Dark Spectrum Present: No
Reference Spectrum Present: No
Number of Sampled Component Spectra: 1
Spectrometers: USB2G37154
Integration Time (usec): 200000 (USB2G37154)
Spectra Averaged: 1 (USB2G37154)
Boxcar Smoothing: 0 (USB2G37154)
Correct for Electrical Dark: No (USB2G37154)
Strobe/Lamp Enabled: No (USB2G37154)
Correct for Detector Non-linearity: No (USB2G37154)
Correct for Stray Light: No (USB2G37154)
Number of Pixels in Processed Spectrum: 651
>>>>>Begin Processed Spectral Data<<<<<
350.00	200.33
351.00	204.67
352.00	203.16
353.00	199.24
354.00	208.48
355.00	209.08
356.00	211.82
357.00	205.69
358.00	217.18
359.00	211.48
360.00	215.00
361.00	210.20
362.00	213.94
363.00	207.73
364.00	214.00
365.00	205.31
366.00	214.92
367.00	209.07
368.00	210.60
369.00	212.88
370.00	216.13
371.00	219.29
372.00	221.65
373.00	219.69
374.00	216.65
375.00	223.08
376.00	225.68
377.00	236.76
378.00	238.87
379.00	242.30
380.00	245.44
381.00	240.39
382.00	242.23
383.00	243.86
384.00	262.82
385.00	262.19
386.00	259.94
387.00	257.89
388.00	251.12
389.00	235.32
390.00	236.68
391.00	248.40
392.00	268.29
393.00	262.90
394.00	274.08
395.00	255.04
396.00	253.90
397.00	250.63
398.00	249.21
399.00	268.12
400.00	309.58
401.00	348.10
402.00	322.22
403.00	349.78
404.00	363.34
405.00	312.55
406.00	371.12
407.00	398.50
408.00	312.77
409.00	315.22
410.00	330.90
411.00	277.91
412.00	304.35
413.00	296.44
414.00	281.94
415.00	387.05
416.00	344.90
417.00	307.09
418.00	367.72
419.00	583.75
420.00	439.28
421.00	321.20
422.00	417.86
423.00	354.14
424.00	314.76
425.00	513.16
426.00	672.99
427.00	667.11
428.00	443.25
429.00	404.51
430.00	379.80
431.00	326.22
432.00	447.72
433.00	608.40
434.00	1867.43
435.00	1035.57
436.00	590.23
437.00	523.93
438.00	400.54
439.00	571.97
440.00	478.53
441.00	473.90
442.00	1142.49
443.00	653.93
444.00	364.89
445.00	292.61
446.00	286.28
447.00	357.09
448.00	347.73
449.00	297.20
450.00	329.70
451.00	331.06
452.00	321.29
453.00	373.81
454.00	551.43
455.00	411.98
456.00	369.31
457.00	498.27
458.00	802.11
459.00	582.46
460.00	1103.60
461.00	725.89
462.00	417.87
463.00	333.95
464.00	309.89
465.00	478.93
466.00	377.58
467.00	309.33
468.00	302.94
469.00	310.70
470.00	314.86
471.00	321.39
472.00	530.77
473.00	620.49
474.00	387.61
475.00	353.07
476.00	601.58
477.00	378.00
478.00	300.89
479.00	339.75
480.00	1320.48
481.00	605.91
482.00	366.36
483.00	306.66
484.00	510.49
485.00	524.73
486.00	522.48
487.00	1717.45
488.00	1311.18
489.00	618.35
490.00	400.78
491.00	354.35
492.00	350.03
493.00	409.41
494.00	329.34
495.00	323.58
496.00	540.33
497.00	393.00
498.00	322.52
499.00	311.41
500.00	482.60
501.00	618.79
502.00	399.12
503.00	337.35
504.00	370.55
505.00	427.66
506.00	469.27
507.00	415.29
508.00	389.90
509.00	357.91
510.00	331.90
511.00	315.01
512.00	314.52
513.00	356.09
514.00	550.04
515.00	393.45
516.00	354.92
517.00	315.47
518.00	359.08
519.00	338.00
520.00	292.52
521.00	304.92
522.00	321.65
523.00	296.90
524.00	306.15
525.00	322.72
526.00	306.74
527.00	294.82
528.00	298.71
529.00	291.64
530.00	285.11
531.00	298.22
532.00	305.69
533.00	312.45
534.00	323.50
535.00	331.16
536.00	326.18
537.00	324.34
538.00	318.14
539.00	317.51
540.00	318.33
541.00	314.18
542.00	323.83
543.00	317.09
544.00	318.34
545.00	349.90
546.00	343.22
547.00	353.45
548.00	323.26
549.00	416.66
550.00	392.34
551.00	347.93
552.00	335.11
553.00	317.08
554.00	305.30
555.00	355.18
556.00	375.46
557.00	345.53
558.00	303.42
559.00	300.11
560.00	347.11
561.00	311.30
562.00	285.64
563.00	288.18
564.00	296.95
565.00	334.57
566.00	307.95
567.00	311.61
568.00	319.07
569.00	320.74
570.00	303.44
571.00	300.47
572.00	273.85
573.00	288.71
574.00	308.24
575.00	281.12
576.00	275.13
577.00	294.10
578.00	284.01
579.00	279.89
580.00	280.49
581.00	274.44
582.00	260.09
583.00	280.57
584.00	274.15
585.00	265.35
586.00	276.19
587.00	280.30
588.00	321.17
589.00	343.29
590.00	289.18
591.00	296.49
592.00	285.50
593.00	301.38
594.00	284.03
595.00	263.28
596.00	256.33
597.00	267.86
598.00	279.41
599.00	284.83
600.00	282.50
601.00	297.11
602.00	304.55
603.00	536.83
604.00	458.62
605.00	359.04
606.00	327.84
607.00	275.24
608.00	256.17
609.00	260.88
610.00	290.22
611.00	398.88
612.00	364.23
613.00	283.89
614.00	276.28
615.00	282.39
616.00	286.60
617.00	402.79
618.00	307.65
619.00	266.64
620.00	269.65
621.00	298.54
622.00	280.89
623.00	254.66
624.00	299.71
625.00	304.36
626.00	283.36
627.00	266.87
628.00	271.77
629.00	279.41
630.00	294.89
631.00	289.47
632.00	256.92
633.00	254.11
634.00	240.79
635.00	247.02
636.00	249.64
637.00	255.33
638.00	256.69
639.00	252.03
640.00	265.00
641.00	287.77
642.00	322.44
643.00	271.46
644.00	260.56
645.00	258.45
646.00	267.09
647.00	254.72
648.00	263.75
649.00	257.87
650.00	245.84
651.00	242.26
652.00	243.18
653.00	248.81
654.00	255.55
655.00	250.72
656.00	519.46
657.00	458.63
658.00	327.98
659.00	255.90
660.00	249.24
661.00	245.02
662.00	236.55
663.00	231.59
664.00	333.23
665.00	321.97
666.00	261.33
667.00	250.62
668.00	278.55
669.00	288.20
670.00	248.20
671.00	232.57
672.00	237.23
673.00	235.00
674.00	225.97
675.00	317.57
676.00	338.07
677.00	256.60
678.00	233.81
679.00	233.97
680.00	226.55
681.00	227.51
682.00	232.91
683.00	226.49
684.00	228.20
685.00	231.36
686.00	233.46
687.00	300.09
688.00	280.94
689.00	266.65
690.00	239.80
691.00	229.28
692.00	231.92
693.00	233.78
694.00	282.62
695.00	266.00
696.00	320.03
697.00	651.73
698.00	342.17
699.00	265.46
700.00	244.58
701.00	238.37
702.00	229.20
703.00	307.83
704.00	290.29
705.00	244.85
706.00	235.95
707.00	508.25
708.00	328.76
709.00	256.13
710.00	226.41
711.00	235.15
712.00	233.23
713.00	227.25
714.00	225.46
715.00	263.25
716.00	244.86
717.00	229.19
718.00	223.87
719.00	215.88
720.00	216.81
721.00	233.38
722.00	225.70
723.00	229.40
724.00	230.68
725.00	243.60
726.00	227.36
727.00	259.48
728.00	298.30
729.00	244.68
730.00	225.57
731.00	225.18
732.00	232.07
733.00	222.52
734.00	223.54
735.00	233.74
736.00	265.27
737.00	292.06
738.00	411.68
739.00	625.88
740.00	348.84
741.00	261.67
742.00	227.04
743.00	232.03
744.00	253.97
745.00	234.66
746.00	218.63
747.00	217.97
748.00	218.19
749.00	229.60
750.00	385.03
751.00	1348.76
752.00	991.32
753.00	490.15
754.00	279.69
755.00	225.52
756.00	220.43
757.00	214.11
758.00	223.06
759.00	223.29
760.00	224.18
761.00	220.57
762.00	226.17
763.00	305.88
764.00	2224.92
765.00	1014.47
766.00	493.34
767.00	263.73
768.00	214.87
769.00	217.79
770.00	210.46
771.00	210.59
772.00	248.43
773.00	626.32
774.00	369.94
775.00	263.29
776.00	220.61
777.00	249.09
778.00	459.05
779.00	305.37
780.00	242.87
781.00	215.72
782.00	207.97
783.00	209.01
784.00	210.48
785.00	212.58
786.00	217.73
787.00	221.41
788.00	221.58
789.00	225.99
790.00	235.78
791.00	229.01
792.00	224.96
793.00	220.70
794.00	218.58
795.00	501.31
796.00	528.52
797.00	313.14
798.00	255.94
799.00	222.52
800.00	220.66
801.00	474.28
802.00	851.40
803.00	500.43
804.00	307.44
805.00	243.60
806.00	226.60
807.00	215.80
808.00	219.78
809.00	225.55
810.00	255.81
811.00	764.41
812.00	3919.85
813.00	2440.57
814.00	898.12
815.00	467.40
816.00	235.94
817.00	223.66
818.00	211.40
819.00	215.29
820.00	210.88
821.00	208.07
822.00	208.90
823.00	211.42
824.00	212.19
825.00	215.79
826.00	213.40
827.00	399.84
828.00	304.12
829.00	244.40
830.00	223.68
831.00	211.95
832.00	210.34
833.00	208.82
834.00	206.84
835.00	206.91
836.00	210.84
837.00	211.81
838.00	208.11
839.00	208.78
840.00	216.08
841.00	359.31
842.00	435.24
843.00	823.74
844.00	508.23
845.00	340.05
846.00	273.23
847.00	222.70
848.00	208.75
849.00	208.72
850.00	209.16
851.00	204.55
852.00	230.20
853.00	348.31
854.00	249.08
855.00	228.72
856.00	225.15
857.00	208.25
858.00	212.62
859.00	202.26
860.00	206.94
861.00	215.55
862.00	210.95
863.00	210.52
864.00	210.66
865.00	207.35
866.00	206.48
867.00	218.15
868.00	222.04
869.00	216.62
870.00	212.48
871.00	208.13
872.00	210.99
873.00	208.03
874.00	205.98
875.00	207.85
876.00	206.09
877.00	209.24
878.00	204.02
879.00	202.84
880.00	206.89
881.00	208.48
882.00	207.04
883.00	207.96
884.00	203.99
885.00	204.05
886.00	206.69
887.00	207.83
888.00	205.02
889.00	208.25
890.00	209.15
891.00	209.99
892.00	211.84
893.00	203.68
894.00	206.71
895.00	205.02
896.00	204.20
897.00	206.32
898.00	202.05
899.00	206.10
900.00	210.62
901.00	202.17
902.00	204.96
903.00	210.48
904.00	206.44
905.00	208.99
906.00	210.31
907.00	207.59
908.00	211.49
909.00	209.49
910.00	208.18
911.00	212.87
912.00	242.58
913.00	483.00
914.00	357.08
915.00	290.94
916.00	255.97
917.00	225.40
918.00	212.64
919.00	208.86
920.00	205.90
921.00	211.32
922.00	209.89
923.00	247.60
924.00	235.65
925.00	224.36
926.00	215.99
927.00	211.97
928.00	204.94
929.00	208.21
930.00	206.14
931.00	203.95
932.00	198.01
933.00	206.34
934.00	204.04
935.00	204.79
936.00	207.18
937.00	203.89
938.00	207.39
939.00	209.43
940.00	206.60
941.00	204.08
942.00	205.92
943.00	206.73
944.00	201.87
945.00	205.15
946.00	208.49
947.00	205.79
948.00	202.00
949.00	206.90
950.00	204.33
951.00	205.21
952.00	201.97
953.00	205.04
954.00	205.89
955.00	203.30
956.00	204.44
957.00	204.77
958.00	203.67
959.00	198.93
960.00	200.64
961.00	201.17
962.00	201.78
963.00	207.40
964.00	200.60
965.00	204.05
966.00	206.17
967.00	216.98
968.00	211.02
969.00	213.05
970.00	209.79
971.00	211.04
972.00	207.56
973.00	205.68
974.00	208.73
975.00	204.58
976.00	204.83
977.00	206.11
978.00	202.52
979.00	207.30
980.00	208.26
981.00	206.55
982.00	206.84
983.00	204.41
984.00	207.31
985.00	205.36
986.00	209.40
987.00	206.54
988.00	205.16
989.00	207.21
990.00	202.00
991.00	205.69
992.00	199.20
993.00	205.51
994.00	204.56
995.00	208.12
996.00	206.22
997.00	202.88
998.00	208.05
999.00	205.78
1000.00	206.83
>>>>>End Processed Spectral Data<<<<<
