SpectraSuite Data File
++++++++++++++++++++++++++++++++++++
Date: Tue Oct 18 14:49:24 CDT 2011
User: Helimak
Dark Spectrum Present: No
Reference Spectrum Present: No
Number of Sampled Component Spectra: 1
Spectrometers: USB2G37154
Integration Time (usec): 200000 (USB2G37154)
Spectra Averaged: 1 (USB2G37154)
Boxcar Smoothing: 0 (USB2G37154)
Correct for Electrical Dark: No (USB2G37154)
Strobe/Lamp Enabled: No (USB2G37154)
Correct for Detector Non-linearity: No (USB2G37154)
Correct for Stray Light: No (USB2G37154)
Number of Pixels in Processed Spectrum: 651
>>>>>Begin Processed Spectral Data<<<<<
350.00	199.63
351.00	201.16
352.00	199.98
353.00	205.47
354.00	209.34
355.00	204.86
356.00	205.80
357.00	208.34
358.00	210.39
359.00	205.37
360.00	207.23
361.00	209.22
362.00	210.62
363.00	205.50
364.00	207.57
365.00	204.93
366.00	203.01
367.00	209.01
368.00	205.33
369.00	208.34
370.00	210.04
371.00	209.19
372.00	211.52
373.00	211.71
374.00	210.39
375.00	214.74
376.00	210.90
377.00	213.25
378.00	217.90
379.00	219.14
380.00	221.37
381.00	221.73
382.00	226.43
383.00	230.37
384.00	230.54
385.00	231.32
386.00	228.98
387.00	229.16
388.00	220.94
389.00	222.05
390.00	220.08
391.00	227.51
392.00	232.47
393.00	234.53
394.00	238.04
395.00	228.96
396.00	231.85
397.00	220.74
398.00	223.45
399.00	226.85
400.00	248.74
401.00	265.57
402.00	256.92
403.00	267.03
404.00	274.18
405.00	258.96
406.00	261.03
407.00	273.26
408.00	249.34
409.00	252.34
410.00	257.94
411.00	240.30
412.00	247.59
413.00	242.23
414.00	236.44
415.00	298.21
416.00	273.23
417.00	257.41
418.00	285.26
419.00	382.30
420.00	320.96
421.00	265.95
422.00	282.81
423.00	263.49
424.00	251.91
425.00	347.73
426.00	397.14
427.00	386.81
428.00	310.70
429.00	303.69
430.00	286.21
431.00	261.06
432.00	308.84
433.00	370.47
434.00	711.37
435.00	466.49
436.00	338.18
437.00	321.77
438.00	286.00
439.00	334.83
440.00	308.03
441.00	304.31
442.00	493.11
443.00	342.77
444.00	273.82
445.00	245.03
446.00	244.83
447.00	263.65
448.00	260.83
449.00	254.16
450.00	278.79
451.00	270.46
452.00	266.60
453.00	287.74
454.00	339.55
455.00	299.83
456.00	290.51
457.00	326.43
458.00	417.21
459.00	354.41
460.00	490.16
461.00	381.53
462.00	290.38
463.00	262.23
464.00	256.81
465.00	311.69
466.00	279.69
467.00	263.18
468.00	263.85
469.00	271.69
470.00	266.83
471.00	264.36
472.00	334.76
473.00	348.23
474.00	282.28
475.00	273.48
476.00	345.83
477.00	271.91
478.00	252.14
479.00	271.56
480.00	541.51
481.00	353.19
482.00	282.49
483.00	260.22
484.00	315.10
485.00	350.79
486.00	357.07
487.00	690.88
488.00	568.51
489.00	366.87
490.00	300.26
491.00	291.16
492.00	290.06
493.00	298.77
494.00	271.23
495.00	274.21
496.00	339.40
497.00	290.48
498.00	274.73
499.00	272.33
500.00	326.13
501.00	353.73
502.00	300.04
503.00	273.81
504.00	295.12
505.00	315.95
506.00	333.24
507.00	323.77
508.00	312.94
509.00	293.60
510.00	278.87
511.00	269.99
512.00	268.65
513.00	280.09
514.00	337.79
515.00	294.58
516.00	289.03
517.00	277.66
518.00	297.00
519.00	285.48
520.00	265.33
521.00	263.87
522.00	272.64
523.00	262.94
524.00	267.47
525.00	278.05
526.00	273.47
527.00	262.87
528.00	262.29
529.00	259.18
530.00	257.95
531.00	257.09
532.00	269.01
533.00	279.99
534.00	279.87
535.00	289.78
536.00	279.53
537.00	279.59
538.00	277.26
539.00	279.63
540.00	273.70
541.00	278.17
542.00	279.35
543.00	275.99
544.00	277.26
545.00	292.91
546.00	288.67
547.00	299.53
548.00	279.95
549.00	313.86
550.00	309.68
551.00	291.93
552.00	274.28
553.00	270.94
554.00	271.76
555.00	295.23
556.00	306.45
557.00	285.81
558.00	257.73
559.00	262.90
560.00	284.20
561.00	265.81
562.00	254.90
563.00	250.81
564.00	259.63
565.00	279.30
566.00	267.81
567.00	274.86
568.00	274.09
569.00	272.20
570.00	268.52
571.00	269.41
572.00	245.32
573.00	257.56
574.00	267.52
575.00	247.97
576.00	246.11
577.00	257.07
578.00	258.24
579.00	246.49
580.00	251.48
581.00	242.07
582.00	241.92
583.00	250.47
584.00	248.01
585.00	239.99
586.00	250.31
587.00	254.18
588.00	269.26
589.00	282.17
590.00	257.70
591.00	261.65
592.00	257.48
593.00	260.06
594.00	245.03
595.00	237.77
596.00	238.69
597.00	245.24
598.00	243.12
599.00	253.43
600.00	254.84
601.00	262.89
602.00	270.57
603.00	387.14
604.00	348.53
605.00	296.48
606.00	273.90
607.00	242.65
608.00	239.42
609.00	229.93
610.00	254.21
611.00	282.54
612.00	272.48
613.00	244.85
614.00	245.88
615.00	254.39
616.00	251.89
617.00	283.98
618.00	254.25
619.00	250.52
620.00	244.82
621.00	257.17
622.00	249.75
623.00	235.76
624.00	250.83
625.00	254.73
626.00	244.08
627.00	246.37
628.00	244.73
629.00	249.22
630.00	247.80
631.00	254.93
632.00	237.83
633.00	231.63
634.00	229.66
635.00	228.00
636.00	234.59
637.00	234.13
638.00	230.54
639.00	240.21
640.00	244.70
641.00	249.37
642.00	274.97
643.00	243.31
644.00	241.60
645.00	234.63
646.00	236.03
647.00	234.92
648.00	236.45
649.00	233.04
650.00	228.27
651.00	224.49
652.00	229.93
653.00	229.65
654.00	232.43
655.00	231.75
656.00	364.70
657.00	335.90
658.00	261.98
659.00	232.32
660.00	230.54
661.00	220.74
662.00	220.92
663.00	220.72
664.00	253.88
665.00	247.08
666.00	228.46
667.00	226.68
668.00	241.25
669.00	241.74
670.00	224.22
671.00	219.72
672.00	227.06
673.00	227.96
674.00	221.20
675.00	266.60
676.00	277.36
677.00	231.74
678.00	216.86
679.00	217.17
680.00	212.98
681.00	223.28
682.00	221.66
683.00	217.44
684.00	223.11
685.00	222.66
686.00	219.69
687.00	252.29
688.00	235.88
689.00	236.66
690.00	226.60
691.00	217.78
692.00	219.20
693.00	221.68
694.00	248.21
695.00	234.02
696.00	274.01
697.00	428.97
698.00	277.63
699.00	238.37
700.00	227.49
701.00	224.89
702.00	221.40
703.00	259.15
704.00	250.82
705.00	227.14
706.00	223.29
707.00	356.19
708.00	269.68
709.00	232.71
710.00	217.82
711.00	218.79
712.00	215.78
713.00	213.49
714.00	220.11
715.00	237.10
716.00	222.37
717.00	214.83
718.00	214.82
719.00	210.36
720.00	211.78
721.00	219.39
722.00	217.51
723.00	220.89
724.00	223.14
725.00	239.31
726.00	211.97
727.00	236.50
728.00	253.05
729.00	228.54
730.00	220.05
731.00	215.94
732.00	218.35
733.00	211.70
734.00	214.23
735.00	218.20
736.00	238.31
737.00	251.14
738.00	300.07
739.00	407.60
740.00	272.02
741.00	229.12
742.00	219.93
743.00	220.10
744.00	223.00
745.00	221.15
746.00	209.79
747.00	212.52
748.00	215.83
749.00	220.83
750.00	285.77
751.00	749.78
752.00	581.53
753.00	337.78
754.00	241.55
755.00	213.78
756.00	208.61
757.00	210.81
758.00	215.13
759.00	213.30
760.00	212.04
761.00	212.78
762.00	213.50
763.00	258.07
764.00	1174.97
765.00	608.21
766.00	339.33
767.00	229.53
768.00	210.66
769.00	209.34
770.00	211.74
771.00	211.52
772.00	220.89
773.00	416.35
774.00	283.87
775.00	233.06
776.00	215.63
777.00	222.52
778.00	319.05
779.00	252.89
780.00	223.29
781.00	206.05
782.00	211.31
783.00	205.52
784.00	208.70
785.00	212.87
786.00	209.11
787.00	216.49
788.00	215.06
789.00	220.00
790.00	219.82
791.00	220.93
792.00	212.19
793.00	217.79
794.00	215.54
795.00	352.77
796.00	366.62
797.00	255.25
798.00	231.19
799.00	212.80
800.00	209.88
801.00	341.79
802.00	513.78
803.00	342.54
804.00	249.71
805.00	223.55
806.00	216.35
807.00	213.80
808.00	212.83
809.00	215.64
810.00	224.37
811.00	486.25
812.00	2329.59
813.00	1344.10
814.00	568.39
815.00	335.44
816.00	223.54
817.00	212.56
818.00	211.24
819.00	215.71
820.00	207.50
821.00	207.94
822.00	208.68
823.00	212.86
824.00	205.88
825.00	214.70
826.00	213.66
827.00	307.81
828.00	254.42
829.00	221.02
830.00	212.77
831.00	205.86
832.00	205.79
833.00	206.87
834.00	204.96
835.00	207.70
836.00	206.62
837.00	206.32
838.00	208.56
839.00	207.85
840.00	207.94
841.00	274.64
842.00	317.46
843.00	511.13
844.00	352.01
845.00	268.24
846.00	232.41
847.00	212.42
848.00	201.40
849.00	204.13
850.00	207.96
851.00	206.24
852.00	212.37
853.00	283.62
854.00	228.49
855.00	216.79
856.00	216.81
857.00	206.48
858.00	211.96
859.00	205.26
860.00	205.51
861.00	213.67
862.00	208.22
863.00	206.33
864.00	212.00
865.00	209.62
866.00	211.98
867.00	211.94
868.00	211.99
869.00	211.10
870.00	204.65
871.00	207.56
872.00	205.04
873.00	207.16
874.00	202.82
875.00	207.60
876.00	205.08
877.00	205.08
878.00	206.84
879.00	206.27
880.00	201.88
881.00	206.11
882.00	201.54
883.00	204.94
884.00	204.00
885.00	207.01
886.00	206.75
887.00	205.80
888.00	203.33
889.00	204.25
890.00	206.99
891.00	207.32
892.00	207.35
893.00	202.56
894.00	202.68
895.00	204.00
896.00	204.39
897.00	206.69
898.00	202.28
899.00	203.18
900.00	206.34
901.00	205.16
902.00	202.38
903.00	211.08
904.00	202.15
905.00	199.91
906.00	208.63
907.00	204.48
908.00	208.47
909.00	204.13
910.00	207.51
911.00	204.03
912.00	224.84
913.00	350.55
914.00	286.13
915.00	249.95
916.00	227.95
917.00	221.55
918.00	206.90
919.00	207.75
920.00	203.11
921.00	206.53
922.00	205.81
923.00	223.93
924.00	217.67
925.00	213.88
926.00	206.00
927.00	210.45
928.00	206.10
929.00	203.91
930.00	208.01
931.00	203.46
932.00	203.54
933.00	200.51
934.00	201.55
935.00	203.00
936.00	204.81
937.00	197.04
938.00	208.68
939.00	203.53
940.00	203.92
941.00	206.20
942.00	207.97
943.00	207.43
944.00	201.38
945.00	208.57
946.00	201.55
947.00	199.99
948.00	201.07
949.00	205.51
950.00	208.72
951.00	204.08
952.00	199.96
953.00	205.19
954.00	205.75
955.00	205.56
956.00	205.07
957.00	201.77
958.00	203.68
959.00	207.96
960.00	206.69
961.00	200.56
962.00	207.35
963.00	202.31
964.00	201.90
965.00	202.48
966.00	202.03
967.00	212.56
968.00	212.97
969.00	206.27
970.00	205.36
971.00	204.17
972.00	200.60
973.00	207.34
974.00	202.77
975.00	201.22
976.00	206.42
977.00	204.51
978.00	201.64
979.00	204.85
980.00	203.35
981.00	200.36
982.00	206.85
983.00	204.70
984.00	204.61
985.00	202.89
986.00	207.43
987.00	198.48
988.00	203.35
989.00	206.43
990.00	203.23
991.00	201.86
992.00	204.93
993.00	205.68
994.00	201.25
995.00	206.27
996.00	198.23
997.00	201.48
998.00	204.28
999.00	203.84
1000.00	201.23
>>>>>End Processed Spectral Data<<<<<
