SpectraSuite Data File
++++++++++++++++++++++++++++++++++++
Date: Tue Oct 18 14:40:15 CDT 2011
User: Helimak
Dark Spectrum Present: No
Reference Spectrum Present: No
Number of Sampled Component Spectra: 1
Spectrometers: USB2G37154
Integration Time (usec): 200000 (USB2G37154)
Spectra Averaged: 1 (USB2G37154)
Boxcar Smoothing: 0 (USB2G37154)
Correct for Electrical Dark: No (USB2G37154)
Strobe/Lamp Enabled: No (USB2G37154)
Correct for Detector Non-linearity: No (USB2G37154)
Correct for Stray Light: No (USB2G37154)
Number of Pixels in Processed Spectrum: 651
>>>>>Begin Processed Spectral Data<<<<<
350.00	200.27
351.00	203.00
352.00	200.70
353.00	206.40
354.00	205.95
355.00	202.51
356.00	205.15
357.00	201.24
358.00	206.80
359.00	200.30
360.00	201.97
361.00	203.98
362.00	205.51
363.00	205.72
364.00	206.23
365.00	206.56
366.00	201.71
367.00	201.01
368.00	204.49
369.00	206.06
370.00	207.99
371.00	206.88
372.00	209.08
373.00	211.88
374.00	206.37
375.00	209.46
376.00	206.13
377.00	208.99
378.00	218.39
379.00	211.93
380.00	216.75
381.00	213.29
382.00	214.46
383.00	219.02
384.00	215.59
385.00	217.30
386.00	221.01
387.00	223.62
388.00	216.17
389.00	219.12
390.00	213.82
391.00	217.99
392.00	217.63
393.00	222.63
394.00	221.73
395.00	218.33
396.00	219.11
397.00	221.16
398.00	217.54
399.00	222.34
400.00	228.90
401.00	232.89
402.00	240.46
403.00	244.06
404.00	238.07
405.00	236.39
406.00	239.02
407.00	245.68
408.00	227.74
409.00	233.50
410.00	232.42
411.00	223.14
412.00	230.15
413.00	230.94
414.00	224.37
415.00	258.92
416.00	244.04
417.00	241.82
418.00	250.96
419.00	312.30
420.00	277.01
421.00	232.07
422.00	247.78
423.00	237.42
424.00	239.66
425.00	285.76
426.00	308.73
427.00	312.30
428.00	265.17
429.00	261.79
430.00	255.56
431.00	239.62
432.00	262.95
433.00	302.11
434.00	463.18
435.00	343.44
436.00	277.01
437.00	265.37
438.00	247.85
439.00	277.54
440.00	264.20
441.00	258.87
442.00	349.77
443.00	284.98
444.00	242.92
445.00	227.85
446.00	226.58
447.00	241.04
448.00	241.99
449.00	232.08
450.00	247.20
451.00	242.18
452.00	246.91
453.00	255.49
454.00	276.68
455.00	265.88
456.00	256.88
457.00	279.96
458.00	317.19
459.00	286.78
460.00	351.47
461.00	303.10
462.00	256.55
463.00	244.76
464.00	240.44
465.00	269.17
466.00	252.88
467.00	240.44
468.00	242.26
469.00	240.92
470.00	241.61
471.00	243.91
472.00	278.16
473.00	282.51
474.00	252.24
475.00	244.29
476.00	280.80
477.00	249.14
478.00	239.63
479.00	244.18
480.00	386.05
481.00	292.08
482.00	252.56
483.00	241.24
484.00	271.37
485.00	286.27
486.00	297.60
487.00	456.19
488.00	411.57
489.00	304.48
490.00	262.43
491.00	263.34
492.00	261.59
493.00	264.15
494.00	248.13
495.00	253.36
496.00	283.85
497.00	255.97
498.00	250.16
499.00	247.89
500.00	273.45
501.00	290.80
502.00	255.03
503.00	251.91
504.00	267.32
505.00	281.86
506.00	285.59
507.00	283.48
508.00	276.51
509.00	262.43
510.00	247.76
511.00	254.01
512.00	252.75
513.00	253.28
514.00	285.07
515.00	264.85
516.00	262.38
517.00	251.00
518.00	259.61
519.00	253.20
520.00	246.53
521.00	246.38
522.00	250.14
523.00	239.27
524.00	246.97
525.00	253.78
526.00	248.78
527.00	242.39
528.00	243.50
529.00	242.34
530.00	237.13
531.00	248.59
532.00	251.99
533.00	250.48
534.00	257.41
535.00	261.85
536.00	260.93
537.00	255.94
538.00	255.30
539.00	246.70
540.00	248.19
541.00	247.71
542.00	249.02
543.00	248.38
544.00	253.28
545.00	266.88
546.00	258.49
547.00	263.25
548.00	255.55
549.00	279.30
550.00	275.61
551.00	264.00
552.00	256.20
553.00	250.09
554.00	253.63
555.00	257.98
556.00	270.85
557.00	253.49
558.00	243.41
559.00	239.83
560.00	258.62
561.00	245.59
562.00	243.63
563.00	233.98
564.00	242.97
565.00	251.27
566.00	247.15
567.00	245.73
568.00	255.06
569.00	248.13
570.00	255.80
571.00	251.78
572.00	241.16
573.00	239.76
574.00	248.69
575.00	245.02
576.00	234.60
577.00	240.16
578.00	241.11
579.00	236.79
580.00	238.04
581.00	228.17
582.00	228.69
583.00	236.23
584.00	230.89
585.00	228.48
586.00	237.00
587.00	240.04
588.00	250.41
589.00	259.33
590.00	237.75
591.00	240.01
592.00	239.93
593.00	238.70
594.00	233.03
595.00	235.42
596.00	229.09
597.00	228.29
598.00	233.71
599.00	239.68
600.00	241.16
601.00	241.05
602.00	241.81
603.00	316.56
604.00	290.82
605.00	261.05
606.00	250.42
607.00	234.50
608.00	228.66
609.00	226.86
610.00	240.68
611.00	250.88
612.00	247.96
613.00	235.28
614.00	233.82
615.00	232.15
616.00	231.99
617.00	259.96
618.00	237.77
619.00	239.92
620.00	229.51
621.00	241.28
622.00	232.47
623.00	225.02
624.00	233.30
625.00	238.78
626.00	232.06
627.00	232.67
628.00	224.66
629.00	237.17
630.00	235.65
631.00	235.17
632.00	223.11
633.00	224.53
634.00	224.03
635.00	222.96
636.00	222.18
637.00	218.66
638.00	226.42
639.00	223.33
640.00	231.06
641.00	236.69
642.00	248.65
643.00	231.65
644.00	227.37
645.00	227.92
646.00	226.03
647.00	227.94
648.00	226.05
649.00	224.69
650.00	217.99
651.00	217.74
652.00	218.04
653.00	224.35
654.00	222.06
655.00	218.01
656.00	294.19
657.00	281.52
658.00	246.99
659.00	217.13
660.00	218.81
661.00	218.44
662.00	212.70
663.00	211.15
664.00	237.47
665.00	229.36
666.00	222.86
667.00	218.60
668.00	226.62
669.00	223.70
670.00	215.45
671.00	215.12
672.00	218.07
673.00	215.98
674.00	217.12
675.00	237.47
676.00	248.54
677.00	221.88
678.00	215.58
679.00	216.09
680.00	215.06
681.00	213.87
682.00	216.89
683.00	212.10
684.00	216.22
685.00	215.39
686.00	213.71
687.00	233.90
688.00	229.01
689.00	225.41
690.00	218.41
691.00	218.38
692.00	217.38
693.00	214.29
694.00	234.38
695.00	218.10
696.00	249.01
697.00	345.44
698.00	252.73
699.00	225.29
700.00	221.31
701.00	213.72
702.00	216.85
703.00	240.76
704.00	231.54
705.00	220.45
706.00	218.94
707.00	295.89
708.00	240.80
709.00	223.12
710.00	211.80
711.00	209.09
712.00	209.66
713.00	208.72
714.00	215.69
715.00	222.39
716.00	222.06
717.00	211.95
718.00	208.64
719.00	207.97
720.00	212.18
721.00	214.25
722.00	211.59
723.00	216.11
724.00	214.50
725.00	229.36
726.00	212.52
727.00	222.18
728.00	239.90
729.00	220.87
730.00	210.92
731.00	213.93
732.00	214.26
733.00	207.93
734.00	212.33
735.00	214.75
736.00	221.18
737.00	231.92
738.00	265.74
739.00	330.25
740.00	247.84
741.00	223.92
742.00	214.96
743.00	213.05
744.00	214.94
745.00	219.88
746.00	208.43
747.00	211.61
748.00	207.74
749.00	210.09
750.00	260.84
751.00	531.08
752.00	452.14
753.00	291.85
754.00	230.22
755.00	211.96
756.00	206.28
757.00	209.86
758.00	211.23
759.00	211.59
760.00	207.37
761.00	207.97
762.00	210.03
763.00	235.96
764.00	794.25
765.00	448.67
766.00	293.37
767.00	222.84
768.00	215.78
769.00	211.43
770.00	206.21
771.00	209.78
772.00	221.15
773.00	332.02
774.00	252.89
775.00	229.53
776.00	207.65
777.00	212.38
778.00	263.98
779.00	230.28
780.00	213.64
781.00	205.43
782.00	205.53
783.00	206.22
784.00	208.26
785.00	209.24
786.00	212.16
787.00	209.53
788.00	213.98
789.00	222.00
790.00	210.33
791.00	214.32
792.00	211.80
793.00	209.67
794.00	213.15
795.00	297.92
796.00	301.83
797.00	237.33
798.00	224.10
799.00	211.63
800.00	211.39
801.00	283.65
802.00	402.23
803.00	300.61
804.00	235.71
805.00	215.79
806.00	208.97
807.00	210.89
808.00	208.25
809.00	212.66
810.00	219.63
811.00	381.20
812.00	1552.51
813.00	941.49
814.00	446.74
815.00	300.60
816.00	220.04
817.00	214.51
818.00	207.22
819.00	210.29
820.00	207.45
821.00	204.92
822.00	206.72
823.00	206.18
824.00	206.68
825.00	211.33
826.00	206.97
827.00	264.00
828.00	235.58
829.00	211.54
830.00	206.95
831.00	204.04
832.00	203.83
833.00	206.49
834.00	207.50
835.00	204.69
836.00	210.55
837.00	206.06
838.00	202.86
839.00	207.95
840.00	205.88
841.00	252.33
842.00	271.45
843.00	388.12
844.00	302.09
845.00	247.32
846.00	224.89
847.00	211.49
848.00	203.94
849.00	204.59
850.00	202.89
851.00	207.20
852.00	213.48
853.00	248.58
854.00	219.40
855.00	212.08
856.00	214.98
857.00	209.48
858.00	206.84
859.00	207.31
860.00	203.75
861.00	213.34
862.00	207.45
863.00	207.49
864.00	206.76
865.00	207.55
866.00	205.27
867.00	213.26
868.00	213.00
869.00	209.95
870.00	203.89
871.00	204.50
872.00	206.84
873.00	206.31
874.00	203.89
875.00	204.33
876.00	204.20
877.00	204.78
878.00	204.21
879.00	207.09
880.00	205.97
881.00	204.65
882.00	204.83
883.00	208.01
884.00	205.00
885.00	206.41
886.00	204.28
887.00	206.20
888.00	200.62
889.00	202.99
890.00	204.26
891.00	212.27
892.00	204.34
893.00	205.78
894.00	204.29
895.00	204.76
896.00	203.77
897.00	204.77
898.00	207.09
899.00	203.62
900.00	204.90
901.00	204.69
902.00	206.32
903.00	206.19
904.00	203.01
905.00	199.99
906.00	205.53
907.00	202.11
908.00	207.11
909.00	207.16
910.00	207.85
911.00	206.58
912.00	219.10
913.00	291.92
914.00	259.56
915.00	234.48
916.00	217.20
917.00	205.56
918.00	207.50
919.00	208.16
920.00	208.82
921.00	204.73
922.00	206.06
923.00	221.08
924.00	211.08
925.00	209.61
926.00	208.99
927.00	207.58
928.00	203.63
929.00	205.77
930.00	203.01
931.00	208.04
932.00	205.01
933.00	202.52
934.00	205.93
935.00	205.42
936.00	199.08
937.00	205.84
938.00	204.20
939.00	207.75
940.00	205.09
941.00	203.50
942.00	206.99
943.00	203.75
944.00	202.53
945.00	211.12
946.00	204.22
947.00	206.08
948.00	204.28
949.00	205.45
950.00	200.82
951.00	201.14
952.00	205.97
953.00	202.35
954.00	202.97
955.00	203.40
956.00	203.27
957.00	203.80
958.00	205.12
959.00	203.98
960.00	204.65
961.00	201.03
962.00	203.90
963.00	206.07
964.00	204.15
965.00	204.74
966.00	206.09
967.00	208.48
968.00	209.98
969.00	203.49
970.00	201.63
971.00	208.01
972.00	208.02
973.00	206.88
974.00	204.94
975.00	203.54
976.00	209.36
977.00	202.77
978.00	200.41
979.00	204.47
980.00	204.29
981.00	200.20
982.00	203.10
983.00	205.29
984.00	204.00
985.00	203.92
986.00	204.00
987.00	205.17
988.00	206.70
989.00	202.79
990.00	200.61
991.00	206.10
992.00	206.61
993.00	203.40
994.00	201.72
995.00	201.73
996.00	199.54
997.00	204.10
998.00	204.10
999.00	206.04
1000.00	205.76
>>>>>End Processed Spectral Data<<<<<
