SpectraSuite Data File
++++++++++++++++++++++++++++++++++++
Date: Tue Oct 18 14:51:57 CDT 2011
User: Helimak
Dark Spectrum Present: No
Reference Spectrum Present: No
Number of Sampled Component Spectra: 1
Spectrometers: USB2G37154
Integration Time (usec): 200000 (USB2G37154)
Spectra Averaged: 1 (USB2G37154)
Boxcar Smoothing: 0 (USB2G37154)
Correct for Electrical Dark: No (USB2G37154)
Strobe/Lamp Enabled: No (USB2G37154)
Correct for Detector Non-linearity: No (USB2G37154)
Correct for Stray Light: No (USB2G37154)
Number of Pixels in Processed Spectrum: 651
>>>>>Begin Processed Spectral Data<<<<<
350.00	204.81
351.00	206.40
352.00	200.19
353.00	203.98
354.00	201.96
355.00	207.28
356.00	208.74
357.00	202.05
358.00	202.43
359.00	205.89
360.00	205.56
361.00	202.23
362.00	206.69
363.00	215.55
364.00	204.99
365.00	204.76
366.00	205.84
367.00	205.85
368.00	204.30
369.00	205.18
370.00	208.03
371.00	210.09
372.00	210.68
373.00	207.88
374.00	210.15
375.00	211.38
376.00	210.17
377.00	207.30
378.00	219.95
379.00	212.22
380.00	218.91
381.00	222.33
382.00	219.99
383.00	219.82
384.00	222.53
385.00	222.10
386.00	227.91
387.00	224.33
388.00	219.54
389.00	220.41
390.00	220.62
391.00	220.93
392.00	227.26
393.00	225.04
394.00	227.53
395.00	224.35
396.00	227.01
397.00	216.57
398.00	222.47
399.00	224.26
400.00	242.54
401.00	247.56
402.00	245.32
403.00	263.37
404.00	256.78
405.00	243.29
406.00	252.02
407.00	256.55
408.00	243.15
409.00	243.07
410.00	237.65
411.00	233.07
412.00	234.73
413.00	229.95
414.00	233.74
415.00	270.69
416.00	256.53
417.00	247.70
418.00	266.32
419.00	341.89
420.00	302.18
421.00	247.64
422.00	265.62
423.00	248.86
424.00	249.23
425.00	316.83
426.00	355.81
427.00	339.72
428.00	286.50
429.00	285.47
430.00	274.07
431.00	257.72
432.00	285.94
433.00	335.75
434.00	559.45
435.00	398.48
436.00	304.24
437.00	293.22
438.00	269.72
439.00	304.85
440.00	284.76
441.00	283.97
442.00	416.45
443.00	317.86
444.00	256.54
445.00	237.09
446.00	239.58
447.00	252.81
448.00	248.59
449.00	246.97
450.00	260.57
451.00	259.41
452.00	261.22
453.00	271.61
454.00	304.50
455.00	283.69
456.00	282.94
457.00	304.13
458.00	355.96
459.00	316.56
460.00	414.39
461.00	343.66
462.00	278.05
463.00	253.79
464.00	254.32
465.00	288.86
466.00	272.99
467.00	250.51
468.00	252.13
469.00	253.88
470.00	255.44
471.00	256.85
472.00	302.01
473.00	310.49
474.00	267.87
475.00	261.53
476.00	311.73
477.00	269.26
478.00	251.69
479.00	259.39
480.00	469.71
481.00	324.77
482.00	266.15
483.00	253.79
484.00	297.31
485.00	323.34
486.00	337.41
487.00	563.90
488.00	488.08
489.00	341.49
490.00	287.60
491.00	279.38
492.00	272.51
493.00	284.88
494.00	265.51
495.00	262.04
496.00	308.28
497.00	278.02
498.00	267.40
499.00	262.31
500.00	302.59
501.00	330.15
502.00	282.01
503.00	264.35
504.00	287.16
505.00	307.68
506.00	309.91
507.00	301.56
508.00	300.88
509.00	283.46
510.00	272.98
511.00	271.00
512.00	260.51
513.00	273.48
514.00	316.35
515.00	282.14
516.00	279.58
517.00	265.08
518.00	283.54
519.00	275.24
520.00	251.94
521.00	253.75
522.00	265.53
523.00	253.33
524.00	254.45
525.00	270.01
526.00	267.82
527.00	260.78
528.00	254.17
529.00	254.79
530.00	248.77
531.00	254.32
532.00	263.56
533.00	269.26
534.00	272.94
535.00	283.01
536.00	282.31
537.00	274.77
538.00	269.76
539.00	265.80
540.00	261.35
541.00	267.44
542.00	269.22
543.00	268.33
544.00	271.77
545.00	277.92
546.00	269.89
547.00	292.62
548.00	269.89
549.00	304.72
550.00	298.45
551.00	282.99
552.00	271.42
553.00	265.20
554.00	262.20
555.00	281.26
556.00	287.89
557.00	274.65
558.00	252.72
559.00	256.00
560.00	275.81
561.00	260.02
562.00	249.99
563.00	242.02
564.00	254.98
565.00	273.52
566.00	262.59
567.00	272.82
568.00	269.21
569.00	267.02
570.00	266.14
571.00	262.80
572.00	250.19
573.00	251.44
574.00	264.77
575.00	247.39
576.00	245.00
577.00	252.65
578.00	251.06
579.00	251.50
580.00	247.71
581.00	237.19
582.00	237.57
583.00	246.51
584.00	247.22
585.00	246.99
586.00	248.11
587.00	248.12
588.00	260.58
589.00	276.60
590.00	251.98
591.00	260.45
592.00	247.66
593.00	258.97
594.00	246.05
595.00	238.47
596.00	231.51
597.00	242.46
598.00	246.14
599.00	249.96
600.00	253.23
601.00	253.29
602.00	263.83
603.00	355.73
604.00	328.24
605.00	283.65
606.00	268.46
607.00	239.57
608.00	232.62
609.00	232.88
610.00	250.43
611.00	270.27
612.00	261.50
613.00	243.07
614.00	244.66
615.00	242.60
616.00	246.23
617.00	270.95
618.00	244.20
619.00	252.98
620.00	234.85
621.00	249.46
622.00	240.79
623.00	232.95
624.00	243.19
625.00	250.28
626.00	248.04
627.00	242.17
628.00	243.40
629.00	243.66
630.00	250.77
631.00	252.78
632.00	237.35
633.00	228.66
634.00	228.34
635.00	225.10
636.00	229.07
637.00	231.14
638.00	233.95
639.00	235.19
640.00	242.04
641.00	246.62
642.00	262.93
643.00	239.51
644.00	235.98
645.00	235.84
646.00	242.05
647.00	234.44
648.00	231.80
649.00	226.13
650.00	222.54
651.00	224.69
652.00	227.97
653.00	228.21
654.00	235.64
655.00	230.03
656.00	346.94
657.00	324.31
658.00	254.99
659.00	229.88
660.00	228.09
661.00	225.06
662.00	219.54
663.00	214.60
664.00	245.62
665.00	237.53
666.00	224.22
667.00	225.15
668.00	236.86
669.00	237.20
670.00	225.52
671.00	221.14
672.00	218.60
673.00	226.99
674.00	219.99
675.00	261.21
676.00	267.63
677.00	230.83
678.00	218.20
679.00	216.43
680.00	216.33
681.00	216.81
682.00	222.46
683.00	214.63
684.00	222.87
685.00	218.08
686.00	212.62
687.00	240.04
688.00	235.90
689.00	228.61
690.00	221.08
691.00	221.58
692.00	215.54
693.00	221.96
694.00	240.91
695.00	236.97
696.00	259.01
697.00	392.50
698.00	272.40
699.00	232.80
700.00	228.32
701.00	224.17
702.00	224.73
703.00	251.20
704.00	243.31
705.00	224.05
706.00	225.99
707.00	325.05
708.00	257.04
709.00	225.99
710.00	214.64
711.00	216.37
712.00	217.36
713.00	216.40
714.00	213.63
715.00	230.02
716.00	225.65
717.00	213.97
718.00	212.91
719.00	213.07
720.00	216.24
721.00	217.84
722.00	216.09
723.00	214.19
724.00	217.49
725.00	233.59
726.00	214.16
727.00	229.12
728.00	245.26
729.00	223.06
730.00	216.23
731.00	216.78
732.00	222.03
733.00	214.17
734.00	211.30
735.00	217.60
736.00	233.23
737.00	240.97
738.00	293.77
739.00	363.67
740.00	262.96
741.00	222.90
742.00	215.03
743.00	216.03
744.00	221.97
745.00	219.37
746.00	211.49
747.00	211.01
748.00	210.57
749.00	212.74
750.00	271.15
751.00	637.28
752.00	515.24
753.00	318.44
754.00	237.07
755.00	217.50
756.00	209.22
757.00	207.38
758.00	215.88
759.00	218.62
760.00	210.42
761.00	208.98
762.00	212.29
763.00	244.43
764.00	985.06
765.00	528.82
766.00	318.84
767.00	227.17
768.00	212.44
769.00	209.27
770.00	207.97
771.00	206.72
772.00	217.46
773.00	375.96
774.00	276.12
775.00	232.84
776.00	214.29
777.00	220.52
778.00	306.02
779.00	247.74
780.00	218.23
781.00	207.07
782.00	203.09
783.00	205.52
784.00	208.05
785.00	215.50
786.00	212.19
787.00	213.71
788.00	210.38
789.00	221.01
790.00	213.44
791.00	212.16
792.00	217.42
793.00	214.52
794.00	214.46
795.00	333.08
796.00	338.41
797.00	246.34
798.00	228.47
799.00	209.93
800.00	212.65
801.00	311.87
802.00	453.70
803.00	330.71
804.00	249.55
805.00	221.89
806.00	214.36
807.00	207.80
808.00	211.57
809.00	215.43
810.00	222.83
811.00	438.48
812.00	1946.14
813.00	1163.84
814.00	518.56
815.00	319.22
816.00	221.87
817.00	213.78
818.00	210.02
819.00	206.36
820.00	203.32
821.00	207.93
822.00	207.66
823.00	206.68
824.00	206.80
825.00	212.74
826.00	210.51
827.00	281.51
828.00	246.56
829.00	222.26
830.00	209.20
831.00	207.28
832.00	207.41
833.00	208.25
834.00	209.98
835.00	208.18
836.00	208.10
837.00	206.98
838.00	206.16
839.00	205.82
840.00	210.02
841.00	263.11
842.00	297.73
843.00	459.01
844.00	327.13
845.00	257.49
846.00	233.59
847.00	213.21
848.00	206.17
849.00	202.56
850.00	206.06
851.00	208.02
852.00	217.19
853.00	261.99
854.00	225.27
855.00	210.18
856.00	213.58
857.00	207.22
858.00	207.42
859.00	202.97
860.00	206.07
861.00	211.34
862.00	211.76
863.00	205.40
864.00	209.94
865.00	207.01
866.00	205.19
867.00	211.02
868.00	214.04
869.00	210.42
870.00	209.65
871.00	206.14
872.00	206.88
873.00	206.46
874.00	208.21
875.00	203.86
876.00	201.14
877.00	206.34
878.00	201.53
879.00	208.48
880.00	205.43
881.00	205.36
882.00	207.60
883.00	206.23
884.00	203.99
885.00	200.36
886.00	202.69
887.00	203.15
888.00	205.52
889.00	206.99
890.00	207.45
891.00	209.03
892.00	206.60
893.00	203.95
894.00	203.60
895.00	202.63
896.00	204.56
897.00	206.24
898.00	204.69
899.00	201.59
900.00	204.61
901.00	202.42
902.00	201.71
903.00	209.09
904.00	203.76
905.00	204.16
906.00	208.26
907.00	204.12
908.00	205.31
909.00	205.79
910.00	203.91
911.00	206.61
912.00	220.20
913.00	321.33
914.00	278.12
915.00	242.30
916.00	232.14
917.00	213.73
918.00	207.12
919.00	202.57
920.00	205.21
921.00	209.14
922.00	200.33
923.00	224.06
924.00	220.65
925.00	213.82
926.00	202.99
927.00	209.42
928.00	202.82
929.00	205.11
930.00	203.55
931.00	200.82
932.00	202.74
933.00	199.78
934.00	200.95
935.00	203.22
936.00	202.94
937.00	208.15
938.00	207.63
939.00	202.50
940.00	204.09
941.00	205.97
942.00	210.98
943.00	208.69
944.00	200.27
945.00	207.53
946.00	201.45
947.00	203.12
948.00	206.70
949.00	206.49
950.00	202.81
951.00	202.57
952.00	198.06
953.00	202.18
954.00	203.62
955.00	205.81
956.00	202.90
957.00	204.21
958.00	204.69
959.00	201.95
960.00	204.37
961.00	204.44
962.00	207.51
963.00	205.02
964.00	201.65
965.00	202.63
966.00	203.42
967.00	209.73
968.00	211.03
969.00	210.30
970.00	204.49
971.00	207.14
972.00	205.75
973.00	207.42
974.00	206.45
975.00	203.26
976.00	206.34
977.00	200.69
978.00	209.70
979.00	207.89
980.00	202.31
981.00	204.75
982.00	204.01
983.00	203.79
984.00	204.40
985.00	204.72
986.00	198.41
987.00	199.28
988.00	205.20
989.00	203.27
990.00	202.86
991.00	203.96
992.00	205.94
993.00	204.96
994.00	206.50
995.00	202.31
996.00	205.45
997.00	208.38
998.00	202.79
999.00	202.41
1000.00	205.12
>>>>>End Processed Spectral Data<<<<<
