SpectraSuite Data File
++++++++++++++++++++++++++++++++++++
Date: Tue Oct 18 14:28:38 CDT 2011
User: Helimak
Dark Spectrum Present: No
Reference Spectrum Present: No
Number of Sampled Component Spectra: 1
Spectrometers: USB2G37154
Integration Time (usec): 200000 (USB2G37154)
Spectra Averaged: 1 (USB2G37154)
Boxcar Smoothing: 0 (USB2G37154)
Correct for Electrical Dark: No (USB2G37154)
Strobe/Lamp Enabled: No (USB2G37154)
Correct for Detector Non-linearity: No (USB2G37154)
Correct for Stray Light: No (USB2G37154)
Number of Pixels in Processed Spectrum: 651
>>>>>Begin Processed Spectral Data<<<<<
350.00	198.72
351.00	194.78
352.00	201.59
353.00	202.03
354.00	203.37
355.00	206.04
356.00	206.31
357.00	206.84
358.00	212.55
359.00	208.56
360.00	210.40
361.00	207.54
362.00	208.85
363.00	210.41
364.00	209.73
365.00	209.81
366.00	208.47
367.00	204.95
368.00	212.98
369.00	212.76
370.00	212.06
371.00	209.26
372.00	218.48
373.00	227.83
374.00	214.58
375.00	216.46
376.00	216.27
377.00	222.45
378.00	227.24
379.00	225.21
380.00	229.79
381.00	228.33
382.00	230.35
383.00	232.80
384.00	241.13
385.00	238.99
386.00	242.08
387.00	244.64
388.00	231.95
389.00	231.31
390.00	230.71
391.00	237.14
392.00	240.85
393.00	245.66
394.00	246.84
395.00	234.89
396.00	237.02
397.00	232.53
398.00	234.25
399.00	246.53
400.00	273.34
401.00	292.66
402.00	281.45
403.00	293.23
404.00	306.37
405.00	274.12
406.00	296.04
407.00	310.36
408.00	270.68
409.00	274.79
410.00	281.34
411.00	251.50
412.00	264.33
413.00	261.19
414.00	255.31
415.00	316.67
416.00	295.50
417.00	274.00
418.00	302.06
419.00	429.72
420.00	343.97
421.00	276.36
422.00	328.14
423.00	291.89
424.00	276.31
425.00	385.71
426.00	462.91
427.00	465.35
428.00	348.09
429.00	328.92
430.00	320.44
431.00	288.73
432.00	356.33
433.00	438.24
434.00	1034.48
435.00	639.04
436.00	414.92
437.00	380.01
438.00	326.64
439.00	408.33
440.00	366.57
441.00	359.39
442.00	678.80
443.00	435.37
444.00	303.96
445.00	261.73
446.00	258.78
447.00	294.63
448.00	290.37
449.00	274.22
450.00	295.25
451.00	293.73
452.00	290.19
453.00	311.45
454.00	397.94
455.00	334.66
456.00	327.26
457.00	384.61
458.00	514.87
459.00	415.42
460.00	637.45
461.00	467.03
462.00	330.48
463.00	289.13
464.00	283.21
465.00	365.88
466.00	321.35
467.00	280.26
468.00	280.90
469.00	282.60
470.00	281.86
471.00	286.83
472.00	395.21
473.00	437.76
474.00	316.48
475.00	304.50
476.00	425.27
477.00	316.85
478.00	271.11
479.00	293.87
480.00	789.20
481.00	424.56
482.00	316.38
483.00	278.38
484.00	378.34
485.00	413.35
486.00	416.10
487.00	982.54
488.00	788.34
489.00	449.23
490.00	338.69
491.00	316.55
492.00	315.00
493.00	340.93
494.00	293.53
495.00	295.07
496.00	401.44
497.00	329.27
498.00	292.80
499.00	287.61
500.00	379.31
501.00	438.13
502.00	335.04
503.00	301.60
504.00	321.01
505.00	361.07
506.00	387.06
507.00	359.12
508.00	343.93
509.00	324.68
510.00	298.54
511.00	294.98
512.00	293.70
513.00	308.76
514.00	396.98
515.00	326.96
516.00	307.73
517.00	288.94
518.00	319.22
519.00	297.35
520.00	274.81
521.00	284.67
522.00	290.31
523.00	281.92
524.00	282.25
525.00	296.15
526.00	286.36
527.00	274.51
528.00	273.92
529.00	270.14
530.00	270.21
531.00	278.91
532.00	282.15
533.00	296.66
534.00	300.38
535.00	316.24
536.00	304.96
537.00	301.81
538.00	295.33
539.00	292.81
540.00	286.25
541.00	284.94
542.00	299.26
543.00	287.27
544.00	300.72
545.00	313.02
546.00	312.58
547.00	322.40
548.00	299.61
549.00	359.93
550.00	340.71
551.00	313.93
552.00	301.52
553.00	302.08
554.00	291.65
555.00	319.72
556.00	330.75
557.00	307.12
558.00	283.91
559.00	276.64
560.00	309.40
561.00	289.46
562.00	270.02
563.00	265.81
564.00	274.83
565.00	294.67
566.00	289.54
567.00	293.99
568.00	297.98
569.00	297.94
570.00	292.52
571.00	284.35
572.00	260.77
573.00	267.17
574.00	284.54
575.00	263.57
576.00	260.56
577.00	268.66
578.00	267.31
579.00	258.47
580.00	257.60
581.00	250.90
582.00	248.24
583.00	268.16
584.00	258.46
585.00	253.58
586.00	263.47
587.00	267.05
588.00	289.09
589.00	301.62
590.00	271.53
591.00	281.81
592.00	266.82
593.00	281.19
594.00	258.01
595.00	252.94
596.00	242.55
597.00	252.23
598.00	263.84
599.00	267.82
600.00	270.30
601.00	284.84
602.00	287.12
603.00	430.72
604.00	384.15
605.00	320.76
606.00	292.75
607.00	263.04
608.00	245.06
609.00	250.77
610.00	273.79
611.00	321.62
612.00	308.32
613.00	258.45
614.00	255.49
615.00	263.32
616.00	259.88
617.00	320.90
618.00	278.19
619.00	263.83
620.00	259.01
621.00	275.08
622.00	260.89
623.00	244.22
624.00	269.20
625.00	277.43
626.00	261.76
627.00	259.86
628.00	262.06
629.00	265.14
630.00	265.97
631.00	269.17
632.00	251.57
633.00	240.77
634.00	235.11
635.00	243.92
636.00	241.35
637.00	247.44
638.00	258.04
639.00	246.09
640.00	252.19
641.00	270.91
642.00	291.66
643.00	258.87
644.00	248.53
645.00	248.87
646.00	251.01
647.00	248.69
648.00	256.82
649.00	243.88
650.00	236.71
651.00	238.03
652.00	232.70
653.00	236.36
654.00	248.52
655.00	246.12
656.00	428.23
657.00	385.00
658.00	293.97
659.00	240.70
660.00	236.47
661.00	233.66
662.00	222.30
663.00	223.90
664.00	283.46
665.00	276.53
666.00	239.31
667.00	235.35
668.00	254.32
669.00	254.52
670.00	235.68
671.00	224.40
672.00	232.16
673.00	224.96
674.00	228.07
675.00	288.72
676.00	301.30
677.00	241.15
678.00	227.42
679.00	223.98
680.00	220.43
681.00	225.41
682.00	227.90
683.00	222.69
684.00	225.41
685.00	226.84
686.00	223.22
687.00	262.94
688.00	255.70
689.00	251.34
690.00	231.07
691.00	226.29
692.00	227.47
693.00	228.40
694.00	260.38
695.00	244.05
696.00	289.02
697.00	490.33
698.00	303.63
699.00	248.86
700.00	230.66
701.00	224.81
702.00	230.95
703.00	279.36
704.00	263.91
705.00	237.33
706.00	230.70
707.00	409.20
708.00	290.11
709.00	242.51
710.00	217.98
711.00	227.92
712.00	220.61
713.00	223.51
714.00	219.19
715.00	247.12
716.00	234.15
717.00	220.52
718.00	216.12
719.00	217.89
720.00	220.18
721.00	221.32
722.00	220.30
723.00	223.29
724.00	224.10
725.00	239.09
726.00	226.52
727.00	244.08
728.00	271.22
729.00	235.81
730.00	221.26
731.00	225.71
732.00	225.70
733.00	220.01
734.00	219.99
735.00	227.30
736.00	241.08
737.00	259.79
738.00	338.76
739.00	467.96
740.00	302.19
741.00	240.30
742.00	227.93
743.00	223.20
744.00	229.88
745.00	229.04
746.00	213.45
747.00	211.61
748.00	217.48
749.00	221.41
750.00	321.83
751.00	920.80
752.00	703.39
753.00	389.81
754.00	258.24
755.00	217.63
756.00	213.51
757.00	216.61
758.00	218.55
759.00	218.05
760.00	220.70
761.00	215.85
762.00	221.06
763.00	280.01
764.00	1534.49
765.00	753.00
766.00	388.48
767.00	246.87
768.00	217.00
769.00	217.50
770.00	208.83
771.00	211.53
772.00	232.50
773.00	484.02
774.00	308.11
775.00	255.05
776.00	209.31
777.00	234.33
778.00	398.03
779.00	288.89
780.00	233.43
781.00	208.67
782.00	210.06
783.00	210.01
784.00	209.87
785.00	213.96
786.00	212.12
787.00	215.44
788.00	217.32
789.00	221.02
790.00	229.69
791.00	220.79
792.00	220.68
793.00	215.10
794.00	222.71
795.00	402.91
796.00	415.06
797.00	277.50
798.00	239.81
799.00	214.91
800.00	215.16
801.00	374.13
802.00	613.59
803.00	400.01
804.00	277.67
805.00	228.49
806.00	221.93
807.00	210.11
808.00	217.09
809.00	216.88
810.00	238.85
811.00	572.77
812.00	2926.46
813.00	1716.87
814.00	683.48
815.00	381.82
816.00	227.92
817.00	217.59
818.00	215.43
819.00	215.66
820.00	209.90
821.00	212.89
822.00	205.16
823.00	210.65
824.00	209.11
825.00	213.43
826.00	211.87
827.00	331.99
828.00	271.91
829.00	229.76
830.00	218.21
831.00	206.88
832.00	211.77
833.00	208.27
834.00	208.16
835.00	208.15
836.00	209.37
837.00	213.12
838.00	209.57
839.00	210.88
840.00	214.76
841.00	302.54
842.00	357.12
843.00	616.36
844.00	399.92
845.00	296.15
846.00	250.32
847.00	215.73
848.00	206.44
849.00	210.84
850.00	209.66
851.00	208.32
852.00	220.28
853.00	303.58
854.00	234.19
855.00	218.22
856.00	217.71
857.00	205.74
858.00	209.09
859.00	213.07
860.00	203.51
861.00	215.46
862.00	207.67
863.00	208.96
864.00	208.12
865.00	207.25
866.00	205.26
867.00	214.48
868.00	216.01
869.00	209.26
870.00	209.42
871.00	209.16
872.00	207.06
873.00	208.84
874.00	202.45
875.00	205.68
876.00	207.02
877.00	211.60
878.00	208.51
879.00	209.54
880.00	207.07
881.00	204.88
882.00	202.41
883.00	203.29
884.00	206.00
885.00	204.62
886.00	205.58
887.00	208.68
888.00	206.03
889.00	208.25
890.00	204.91
891.00	214.69
892.00	205.62
893.00	204.23
894.00	203.91
895.00	213.73
896.00	205.47
897.00	204.97
898.00	201.92
899.00	202.82
900.00	204.93
901.00	202.50
902.00	204.26
903.00	208.09
904.00	201.98
905.00	207.99
906.00	209.44
907.00	207.74
908.00	204.57
909.00	205.05
910.00	204.95
911.00	207.60
912.00	235.17
913.00	394.66
914.00	316.22
915.00	262.78
916.00	236.73
917.00	221.11
918.00	206.62
919.00	204.52
920.00	206.97
921.00	206.61
922.00	212.07
923.00	235.90
924.00	224.07
925.00	218.42
926.00	211.99
927.00	209.48
928.00	203.61
929.00	207.25
930.00	206.86
931.00	206.63
932.00	204.65
933.00	205.86
934.00	204.84
935.00	202.79
936.00	204.82
937.00	204.26
938.00	208.45
939.00	205.67
940.00	202.34
941.00	205.53
942.00	206.97
943.00	203.48
944.00	204.48
945.00	214.52
946.00	202.01
947.00	203.91
948.00	200.68
949.00	208.01
950.00	205.18
951.00	202.19
952.00	203.94
953.00	207.22
954.00	202.62
955.00	206.28
956.00	206.71
957.00	205.01
958.00	204.45
959.00	200.95
960.00	205.55
961.00	201.86
962.00	200.40
963.00	204.98
964.00	205.37
965.00	204.32
966.00	209.24
967.00	211.51
968.00	210.95
969.00	209.91
970.00	208.67
971.00	206.04
972.00	204.27
973.00	205.04
974.00	202.44
975.00	206.70
976.00	205.08
977.00	205.95
978.00	202.38
979.00	205.31
980.00	205.35
981.00	204.12
982.00	202.90
983.00	207.41
984.00	203.90
985.00	207.96
986.00	203.02
987.00	201.94
988.00	206.00
989.00	207.36
990.00	204.02
991.00	208.73
992.00	204.08
993.00	203.74
994.00	198.33
995.00	205.16
996.00	208.14
997.00	205.44
998.00	203.25
999.00	203.87
1000.00	199.98
>>>>>End Processed Spectral Data<<<<<
