SpectraSuite Data File
++++++++++++++++++++++++++++++++++++
Date: Tue Oct 18 14:40:15 CDT 2011
User: Helimak
Dark Spectrum Present: No
Reference Spectrum Present: No
Number of Sampled Component Spectra: 1
Spectrometers: USB2G37154
Integration Time (usec): 200000 (USB2G37154)
Spectra Averaged: 1 (USB2G37154)
Boxcar Smoothing: 0 (USB2G37154)
Correct for Electrical Dark: No (USB2G37154)
Strobe/Lamp Enabled: No (USB2G37154)
Correct for Detector Non-linearity: No (USB2G37154)
Correct for Stray Light: No (USB2G37154)
Number of Pixels in Processed Spectrum: 651
>>>>>Begin Processed Spectral Data<<<<<
350.00	201.66
351.00	208.31
352.00	201.95
353.00	202.41
354.00	202.54
355.00	205.37
356.00	205.19
357.00	203.26
358.00	207.68
359.00	203.27
360.00	209.33
361.00	204.03
362.00	205.13
363.00	205.10
364.00	207.85
365.00	209.20
366.00	203.71
367.00	202.98
368.00	206.72
369.00	203.18
370.00	205.99
371.00	204.79
372.00	205.67
373.00	209.66
374.00	208.16
375.00	207.75
376.00	207.41
377.00	209.27
378.00	213.94
379.00	212.66
380.00	213.23
381.00	217.85
382.00	211.25
383.00	214.86
384.00	220.25
385.00	221.92
386.00	219.01
387.00	219.81
388.00	220.02
389.00	213.30
390.00	215.46
391.00	217.53
392.00	219.14
393.00	213.84
394.00	217.19
395.00	223.31
396.00	220.89
397.00	212.23
398.00	215.40
399.00	221.49
400.00	231.30
401.00	234.42
402.00	233.66
403.00	240.36
404.00	246.09
405.00	238.76
406.00	237.02
407.00	246.25
408.00	228.57
409.00	233.69
410.00	232.90
411.00	227.61
412.00	226.17
413.00	227.92
414.00	224.15
415.00	256.13
416.00	246.40
417.00	236.11
418.00	253.76
419.00	314.03
420.00	276.76
421.00	241.22
422.00	254.98
423.00	246.40
424.00	239.95
425.00	289.50
426.00	312.22
427.00	309.41
428.00	269.30
429.00	263.97
430.00	257.68
431.00	242.28
432.00	266.68
433.00	293.97
434.00	471.06
435.00	343.78
436.00	280.40
437.00	272.01
438.00	250.75
439.00	274.78
440.00	265.98
441.00	261.59
442.00	353.14
443.00	285.91
444.00	239.00
445.00	231.96
446.00	227.52
447.00	238.62
448.00	241.21
449.00	231.97
450.00	241.96
451.00	248.01
452.00	246.72
453.00	253.68
454.00	282.63
455.00	262.49
456.00	266.10
457.00	278.06
458.00	321.48
459.00	288.54
460.00	350.99
461.00	300.10
462.00	260.32
463.00	250.86
464.00	237.71
465.00	265.63
466.00	251.59
467.00	237.66
468.00	244.97
469.00	248.93
470.00	249.56
471.00	243.26
472.00	274.57
473.00	289.81
474.00	250.69
475.00	244.78
476.00	287.32
477.00	254.09
478.00	241.91
479.00	244.85
480.00	387.08
481.00	291.41
482.00	252.92
483.00	241.99
484.00	266.38
485.00	290.34
486.00	293.82
487.00	456.64
488.00	406.28
489.00	298.43
490.00	271.86
491.00	261.20
492.00	257.96
493.00	264.78
494.00	250.87
495.00	254.94
496.00	284.29
497.00	258.44
498.00	249.23
499.00	251.66
500.00	274.93
501.00	290.98
502.00	253.02
503.00	249.66
504.00	268.09
505.00	284.33
506.00	280.25
507.00	276.63
508.00	274.42
509.00	263.77
510.00	249.85
511.00	254.02
512.00	250.73
513.00	251.44
514.00	284.92
515.00	264.39
516.00	259.00
517.00	250.97
518.00	264.25
519.00	254.17
520.00	242.95
521.00	252.08
522.00	251.41
523.00	238.43
524.00	246.55
525.00	255.96
526.00	244.92
527.00	242.09
528.00	237.53
529.00	240.83
530.00	239.91
531.00	244.16
532.00	245.86
533.00	258.15
534.00	258.40
535.00	260.91
536.00	262.25
537.00	255.27
538.00	246.86
539.00	244.99
540.00	244.63
541.00	246.07
542.00	253.37
543.00	248.48
544.00	250.33
545.00	252.33
546.00	261.14
547.00	269.00
548.00	252.89
549.00	280.81
550.00	268.81
551.00	261.01
552.00	260.70
553.00	252.29
554.00	244.47
555.00	258.95
556.00	268.82
557.00	259.14
558.00	245.93
559.00	242.42
560.00	260.83
561.00	248.00
562.00	239.74
563.00	239.87
564.00	237.16
565.00	255.68
566.00	249.18
567.00	250.26
568.00	249.07
569.00	250.55
570.00	250.17
571.00	247.43
572.00	233.79
573.00	238.18
574.00	249.59
575.00	235.29
576.00	239.50
577.00	241.91
578.00	237.24
579.00	239.32
580.00	233.13
581.00	230.26
582.00	232.30
583.00	236.33
584.00	229.97
585.00	230.82
586.00	239.12
587.00	234.01
588.00	254.29
589.00	259.12
590.00	241.43
591.00	240.97
592.00	239.22
593.00	239.09
594.00	240.02
595.00	228.61
596.00	229.98
597.00	226.99
598.00	228.98
599.00	240.79
600.00	237.45
601.00	242.18
602.00	246.48
603.00	323.75
604.00	290.87
605.00	264.00
606.00	249.73
607.00	231.97
608.00	226.13
609.00	225.92
610.00	236.23
611.00	249.51
612.00	243.27
613.00	227.51
614.00	231.27
615.00	234.87
616.00	235.58
617.00	248.94
618.00	237.86
619.00	246.31
620.00	233.15
621.00	243.85
622.00	230.29
623.00	223.50
624.00	232.04
625.00	240.03
626.00	237.06
627.00	228.50
628.00	233.65
629.00	238.47
630.00	236.18
631.00	242.00
632.00	227.47
633.00	220.58
634.00	220.51
635.00	220.93
636.00	225.14
637.00	226.40
638.00	225.50
639.00	228.18
640.00	231.71
641.00	240.98
642.00	248.95
643.00	230.75
644.00	221.13
645.00	229.02
646.00	234.01
647.00	233.17
648.00	228.68
649.00	226.13
650.00	219.80
651.00	215.80
652.00	223.35
653.00	222.78
654.00	232.33
655.00	225.47
656.00	300.36
657.00	286.43
658.00	239.99
659.00	218.05
660.00	221.83
661.00	218.66
662.00	217.33
663.00	212.76
664.00	234.76
665.00	226.31
666.00	218.94
667.00	222.01
668.00	232.10
669.00	222.20
670.00	216.86
671.00	218.57
672.00	212.93
673.00	220.00
674.00	213.95
675.00	238.26
676.00	252.41
677.00	219.60
678.00	213.01
679.00	213.64
680.00	215.49
681.00	214.46
682.00	218.66
683.00	212.26
684.00	219.83
685.00	218.93
686.00	212.27
687.00	232.51
688.00	233.12
689.00	219.84
690.00	215.18
691.00	213.66
692.00	217.23
693.00	222.27
694.00	229.33
695.00	227.03
696.00	251.01
697.00	346.67
698.00	250.75
699.00	224.72
700.00	217.35
701.00	215.86
702.00	217.30
703.00	234.89
704.00	233.38
705.00	220.62
706.00	220.18
707.00	297.75
708.00	246.37
709.00	226.28
710.00	211.53
711.00	217.90
712.00	213.82
713.00	212.96
714.00	212.22
715.00	225.08
716.00	218.46
717.00	213.33
718.00	214.49
719.00	210.98
720.00	211.37
721.00	217.82
722.00	210.81
723.00	213.66
724.00	212.17
725.00	232.00
726.00	214.69
727.00	225.83
728.00	237.37
729.00	219.16
730.00	213.32
731.00	208.40
732.00	215.74
733.00	212.72
734.00	211.97
735.00	212.05
736.00	222.75
737.00	229.52
738.00	273.97
739.00	326.41
740.00	245.21
741.00	220.02
742.00	214.02
743.00	216.02
744.00	214.17
745.00	217.71
746.00	207.33
747.00	207.50
748.00	208.81
749.00	213.51
750.00	253.43
751.00	535.67
752.00	456.34
753.00	293.04
754.00	231.66
755.00	209.58
756.00	205.52
757.00	210.47
758.00	212.96
759.00	211.87
760.00	210.44
761.00	209.86
762.00	212.53
763.00	241.73
764.00	789.36
765.00	451.50
766.00	292.35
767.00	226.25
768.00	210.10
769.00	206.41
770.00	205.24
771.00	207.87
772.00	216.60
773.00	333.87
774.00	257.18
775.00	228.00
776.00	208.96
777.00	218.17
778.00	265.01
779.00	230.04
780.00	212.00
781.00	205.91
782.00	204.66
783.00	205.87
784.00	211.84
785.00	207.79
786.00	206.83
787.00	208.16
788.00	210.28
789.00	216.99
790.00	216.13
791.00	214.03
792.00	211.09
793.00	208.50
794.00	212.11
795.00	290.03
796.00	309.68
797.00	239.74
798.00	215.52
799.00	210.99
800.00	207.55
801.00	288.08
802.00	401.83
803.00	294.74
804.00	239.83
805.00	217.91
806.00	214.32
807.00	204.80
808.00	212.64
809.00	210.08
810.00	217.05
811.00	385.68
812.00	1560.90
813.00	944.44
814.00	449.76
815.00	299.59
816.00	213.62
817.00	210.43
818.00	205.51
819.00	205.16
820.00	206.51
821.00	208.20
822.00	205.39
823.00	208.78
824.00	202.49
825.00	212.60
826.00	206.32
827.00	262.84
828.00	236.11
829.00	213.10
830.00	215.27
831.00	204.55
832.00	206.94
833.00	204.73
834.00	204.02
835.00	201.78
836.00	205.59
837.00	205.28
838.00	203.82
839.00	205.96
840.00	205.05
841.00	247.59
842.00	270.29
843.00	399.97
844.00	302.24
845.00	237.43
846.00	225.02
847.00	206.61
848.00	206.65
849.00	205.38
850.00	202.54
851.00	206.35
852.00	209.11
853.00	249.64
854.00	218.86
855.00	215.85
856.00	212.08
857.00	205.81
858.00	207.36
859.00	205.18
860.00	203.87
861.00	206.03
862.00	208.12
863.00	207.25
864.00	212.68
865.00	205.40
866.00	206.71
867.00	208.83
868.00	208.97
869.00	207.43
870.00	206.52
871.00	207.61
872.00	202.72
873.00	206.57
874.00	202.34
875.00	207.34
876.00	204.10
877.00	205.30
878.00	205.11
879.00	205.22
880.00	202.56
881.00	202.07
882.00	204.54
883.00	203.66
884.00	205.01
885.00	207.19
886.00	204.25
887.00	204.73
888.00	204.93
889.00	202.25
890.00	208.18
891.00	203.89
892.00	208.50
893.00	201.86
894.00	199.83
895.00	206.87
896.00	198.78
897.00	203.73
898.00	204.08
899.00	202.38
900.00	204.76
901.00	206.62
902.00	197.13
903.00	204.08
904.00	204.43
905.00	208.02
906.00	209.57
907.00	207.38
908.00	204.14
909.00	208.22
910.00	204.44
911.00	205.62
912.00	214.94
913.00	287.97
914.00	252.50
915.00	229.01
916.00	219.69
917.00	208.27
918.00	203.76
919.00	208.89
920.00	200.86
921.00	207.37
922.00	204.71
923.00	216.20
924.00	211.14
925.00	210.66
926.00	205.98
927.00	208.56
928.00	203.70
929.00	206.13
930.00	203.67
931.00	206.17
932.00	202.00
933.00	209.33
934.00	202.08
935.00	203.91
936.00	200.86
937.00	202.91
938.00	206.45
939.00	206.35
940.00	203.25
941.00	205.02
942.00	204.99
943.00	203.78
944.00	204.06
945.00	208.86
946.00	204.93
947.00	204.88
948.00	201.62
949.00	202.92
950.00	199.87
951.00	198.84
952.00	206.00
953.00	204.34
954.00	199.26
955.00	207.18
956.00	201.99
957.00	205.72
958.00	204.61
959.00	203.96
960.00	203.08
961.00	206.02
962.00	199.90
963.00	205.31
964.00	204.77
965.00	203.74
966.00	203.32
967.00	208.76
968.00	207.97
969.00	207.67
970.00	204.28
971.00	206.86
972.00	205.63
973.00	205.04
974.00	206.42
975.00	206.53
976.00	205.02
977.00	198.79
978.00	207.27
979.00	205.77
980.00	207.65
981.00	209.54
982.00	206.39
983.00	207.16
984.00	207.28
985.00	206.41
986.00	207.57
987.00	205.85
988.00	204.06
989.00	205.62
990.00	200.83
991.00	200.79
992.00	206.42
993.00	205.75
994.00	205.71
995.00	202.28
996.00	203.97
997.00	204.88
998.00	201.98
999.00	204.73
1000.00	208.68
>>>>>End Processed Spectral Data<<<<<
