SpectraSuite Data File
++++++++++++++++++++++++++++++++++++
Date: Tue Oct 18 14:43:24 CDT 2011
User: Helimak
Dark Spectrum Present: No
Reference Spectrum Present: No
Number of Sampled Component Spectra: 1
Spectrometers: USB2G37154
Integration Time (usec): 200000 (USB2G37154)
Spectra Averaged: 1 (USB2G37154)
Boxcar Smoothing: 0 (USB2G37154)
Correct for Electrical Dark: No (USB2G37154)
Strobe/Lamp Enabled: No (USB2G37154)
Correct for Detector Non-linearity: No (USB2G37154)
Correct for Stray Light: No (USB2G37154)
Number of Pixels in Processed Spectrum: 651
>>>>>Begin Processed Spectral Data<<<<<
350.00	201.68
351.00	202.09
352.00	201.18
353.00	208.01
354.00	204.68
355.00	208.68
356.00	207.46
357.00	202.58
358.00	208.78
359.00	209.11
360.00	210.89
361.00	205.95
362.00	211.08
363.00	207.01
364.00	208.64
365.00	209.63
366.00	210.23
367.00	213.83
368.00	212.32
369.00	219.48
370.00	214.00
371.00	216.45
372.00	218.92
373.00	216.87
374.00	214.52
375.00	222.03
376.00	221.90
377.00	233.21
378.00	241.14
379.00	237.13
380.00	241.58
381.00	240.49
382.00	239.74
383.00	245.61
384.00	256.86
385.00	262.74
386.00	257.92
387.00	253.72
388.00	247.40
389.00	241.38
390.00	239.90
391.00	247.26
392.00	256.88
393.00	255.75
394.00	265.65
395.00	251.57
396.00	250.09
397.00	248.21
398.00	245.07
399.00	259.13
400.00	297.71
401.00	335.10
402.00	315.21
403.00	340.74
404.00	346.03
405.00	310.81
406.00	344.08
407.00	371.18
408.00	303.58
409.00	308.57
410.00	324.81
411.00	276.43
412.00	288.87
413.00	288.37
414.00	268.56
415.00	375.99
416.00	332.19
417.00	298.49
418.00	346.39
419.00	531.31
420.00	424.28
421.00	310.56
422.00	388.50
423.00	337.16
424.00	305.30
425.00	474.76
426.00	601.88
427.00	607.59
428.00	423.11
429.00	392.69
430.00	373.28
431.00	333.66
432.00	423.45
433.00	557.10
434.00	1567.85
435.00	894.62
436.00	539.60
437.00	471.30
438.00	378.60
439.00	519.64
440.00	454.93
441.00	434.71
442.00	963.67
443.00	575.30
444.00	356.60
445.00	285.77
446.00	286.37
447.00	337.91
448.00	319.93
449.00	291.19
450.00	320.37
451.00	324.48
452.00	315.19
453.00	349.95
454.00	507.73
455.00	389.20
456.00	369.25
457.00	467.95
458.00	680.81
459.00	531.60
460.00	924.17
461.00	644.49
462.00	404.21
463.00	329.66
464.00	305.32
465.00	434.05
466.00	358.66
467.00	311.50
468.00	311.76
469.00	317.40
470.00	309.23
471.00	316.81
472.00	491.93
473.00	555.78
474.00	375.29
475.00	346.73
476.00	539.82
477.00	356.01
478.00	300.68
479.00	326.46
480.00	1110.16
481.00	559.76
482.00	357.10
483.00	304.36
484.00	467.69
485.00	518.73
486.00	507.99
487.00	1418.70
488.00	1139.83
489.00	575.17
490.00	394.05
491.00	356.73
492.00	344.55
493.00	397.48
494.00	329.17
495.00	329.91
496.00	498.01
497.00	379.84
498.00	326.21
499.00	317.80
500.00	455.74
501.00	561.26
502.00	385.09
503.00	335.74
504.00	372.16
505.00	422.44
506.00	454.66
507.00	419.50
508.00	400.78
509.00	370.49
510.00	330.48
511.00	329.00
512.00	324.23
513.00	353.35
514.00	503.02
515.00	373.41
516.00	355.94
517.00	327.84
518.00	356.36
519.00	344.58
520.00	305.73
521.00	306.70
522.00	321.74
523.00	297.94
524.00	303.03
525.00	329.35
526.00	312.45
527.00	306.47
528.00	302.38
529.00	292.64
530.00	291.07
531.00	300.38
532.00	318.42
533.00	332.82
534.00	333.90
535.00	341.83
536.00	336.49
537.00	336.01
538.00	335.70
539.00	321.83
540.00	322.42
541.00	318.32
542.00	328.40
543.00	322.36
544.00	327.75
545.00	349.76
546.00	345.77
547.00	366.33
548.00	331.06
549.00	413.66
550.00	391.13
551.00	350.93
552.00	330.85
553.00	318.49
554.00	319.00
555.00	356.67
556.00	378.79
557.00	341.50
558.00	305.75
559.00	301.64
560.00	348.08
561.00	320.26
562.00	290.77
563.00	280.13
564.00	299.61
565.00	333.67
566.00	313.66
567.00	321.22
568.00	328.27
569.00	320.90
570.00	309.84
571.00	302.81
572.00	283.75
573.00	289.75
574.00	303.31
575.00	280.54
576.00	283.29
577.00	300.38
578.00	293.21
579.00	282.42
580.00	288.76
581.00	272.49
582.00	260.70
583.00	282.70
584.00	275.18
585.00	267.81
586.00	278.14
587.00	280.30
588.00	318.18
589.00	347.21
590.00	291.26
591.00	302.52
592.00	289.51
593.00	298.74
594.00	281.01
595.00	262.19
596.00	266.73
597.00	272.89
598.00	280.22
599.00	288.46
600.00	292.87
601.00	296.19
602.00	306.49
603.00	504.17
604.00	451.01
605.00	360.35
606.00	329.39
607.00	279.76
608.00	255.22
609.00	256.90
610.00	287.95
611.00	376.14
612.00	347.49
613.00	285.05
614.00	270.57
615.00	285.53
616.00	288.56
617.00	374.86
618.00	299.33
619.00	275.38
620.00	266.73
621.00	291.08
622.00	280.23
623.00	256.05
624.00	291.36
625.00	299.81
626.00	286.81
627.00	273.43
628.00	277.69
629.00	283.62
630.00	296.25
631.00	290.79
632.00	257.44
633.00	250.95
634.00	245.91
635.00	249.94
636.00	247.54
637.00	262.99
638.00	255.36
639.00	255.88
640.00	268.46
641.00	289.52
642.00	320.13
643.00	278.87
644.00	268.59
645.00	262.43
646.00	268.09
647.00	263.62
648.00	262.28
649.00	256.52
650.00	250.02
651.00	247.56
652.00	245.25
653.00	245.28
654.00	258.55
655.00	249.11
656.00	509.04
657.00	462.06
658.00	330.97
659.00	256.09
660.00	248.21
661.00	243.49
662.00	227.91
663.00	226.84
664.00	311.89
665.00	303.83
666.00	260.12
667.00	244.95
668.00	276.28
669.00	275.11
670.00	241.13
671.00	233.98
672.00	239.52
673.00	234.03
674.00	235.91
675.00	307.29
676.00	326.67
677.00	255.11
678.00	231.37
679.00	231.07
680.00	229.84
681.00	229.10
682.00	231.80
683.00	230.44
684.00	233.15
685.00	232.09
686.00	228.72
687.00	282.35
688.00	274.35
689.00	264.80
690.00	235.48
691.00	233.62
692.00	229.51
693.00	236.51
694.00	279.93
695.00	264.11
696.00	316.02
697.00	603.82
698.00	343.49
699.00	265.30
700.00	246.72
701.00	236.98
702.00	232.21
703.00	305.39
704.00	280.70
705.00	247.29
706.00	238.16
707.00	467.99
708.00	321.70
709.00	255.91
710.00	221.43
711.00	236.31
712.00	226.99
713.00	229.07
714.00	226.84
715.00	254.21
716.00	245.51
717.00	227.48
718.00	220.22
719.00	216.33
720.00	219.32
721.00	229.55
722.00	227.03
723.00	225.65
724.00	235.12
725.00	247.53
726.00	228.17
727.00	254.13
728.00	282.71
729.00	246.99
730.00	224.94
731.00	228.38
732.00	228.34
733.00	224.43
734.00	217.26
735.00	232.72
736.00	256.32
737.00	274.21
738.00	387.71
739.00	571.09
740.00	332.79
741.00	253.39
742.00	227.00
743.00	228.01
744.00	241.17
745.00	234.54
746.00	217.27
747.00	220.95
748.00	217.79
749.00	229.22
750.00	348.03
751.00	1199.78
752.00	907.57
753.00	461.52
754.00	275.55
755.00	229.54
756.00	219.43
757.00	217.62
758.00	221.25
759.00	224.07
760.00	221.25
761.00	213.31
762.00	228.96
763.00	289.49
764.00	1991.09
765.00	947.71
766.00	460.74
767.00	258.33
768.00	219.62
769.00	212.55
770.00	210.61
771.00	212.53
772.00	242.93
773.00	580.67
774.00	346.93
775.00	268.74
776.00	216.95
777.00	247.51
778.00	474.00
779.00	316.53
780.00	247.20
781.00	218.12
782.00	210.54
783.00	209.43
784.00	213.71
785.00	216.91
786.00	219.23
787.00	222.66
788.00	223.05
789.00	228.93
790.00	231.69
791.00	226.91
792.00	222.25
793.00	223.53
794.00	222.14
795.00	469.96
796.00	501.83
797.00	305.42
798.00	254.79
799.00	222.81
800.00	220.03
801.00	441.34
802.00	773.78
803.00	460.77
804.00	300.39
805.00	238.94
806.00	223.69
807.00	215.85
808.00	217.98
809.00	222.24
810.00	247.24
811.00	701.61
812.00	3643.37
813.00	2225.39
814.00	841.88
815.00	442.14
816.00	237.73
817.00	222.85
818.00	218.47
819.00	213.65
820.00	211.08
821.00	208.14
822.00	210.09
823.00	209.73
824.00	209.03
825.00	215.62
826.00	213.56
827.00	373.60
828.00	293.55
829.00	245.20
830.00	219.94
831.00	212.22
832.00	205.70
833.00	209.69
834.00	208.09
835.00	211.11
836.00	210.05
837.00	210.15
838.00	209.61
839.00	205.93
840.00	212.17
841.00	336.82
842.00	413.47
843.00	748.87
844.00	486.15
845.00	330.02
846.00	272.70
847.00	220.20
848.00	206.78
849.00	204.87
850.00	205.89
851.00	208.17
852.00	224.15
853.00	337.41
854.00	245.35
855.00	222.79
856.00	221.52
857.00	210.05
858.00	204.80
859.00	211.21
860.00	207.69
861.00	213.25
862.00	205.21
863.00	210.78
864.00	209.01
865.00	210.11
866.00	208.11
867.00	219.98
868.00	221.96
869.00	214.77
870.00	213.14
871.00	207.90
872.00	211.76
873.00	212.86
874.00	208.44
875.00	205.04
876.00	206.99
877.00	210.72
878.00	208.35
879.00	208.23
880.00	206.82
881.00	206.66
882.00	204.89
883.00	205.90
884.00	206.01
885.00	207.01
886.00	208.66
887.00	208.07
888.00	209.59
889.00	207.80
890.00	210.12
891.00	212.15
892.00	207.69
893.00	203.81
894.00	200.18
895.00	204.96
896.00	202.29
897.00	203.79
898.00	206.23
899.00	202.49
900.00	203.94
901.00	205.60
902.00	200.39
903.00	212.27
904.00	205.23
905.00	204.20
906.00	208.19
907.00	207.45
908.00	204.94
909.00	203.79
910.00	206.79
911.00	204.67
912.00	237.33
913.00	453.91
914.00	335.82
915.00	290.13
916.00	251.88
917.00	225.98
918.00	208.35
919.00	209.29
920.00	205.04
921.00	212.40
922.00	206.05
923.00	242.67
924.00	230.76
925.00	218.78
926.00	214.99
927.00	210.89
928.00	207.59
929.00	202.10
930.00	206.45
931.00	206.16
932.00	209.92
933.00	207.04
934.00	203.03
935.00	204.49
936.00	200.97
937.00	204.98
938.00	210.34
939.00	204.44
940.00	207.23
941.00	211.02
942.00	210.01
943.00	206.67
944.00	203.34
945.00	210.53
946.00	205.73
947.00	203.19
948.00	207.97
949.00	199.98
950.00	206.19
951.00	206.00
952.00	204.90
953.00	207.20
954.00	203.14
955.00	205.34
956.00	204.84
957.00	205.31
958.00	206.68
959.00	205.94
960.00	207.23
961.00	203.74
962.00	204.06
963.00	204.66
964.00	205.59
965.00	203.97
966.00	206.24
967.00	215.76
968.00	214.97
969.00	215.69
970.00	204.56
971.00	207.54
972.00	204.68
973.00	207.36
974.00	206.10
975.00	201.60
976.00	204.19
977.00	201.74
978.00	207.69
979.00	202.20
980.00	203.91
981.00	203.93
982.00	204.71
983.00	208.13
984.00	201.65
985.00	203.14
986.00	205.16
987.00	203.23
988.00	204.17
989.00	198.03
990.00	200.19
991.00	205.31
992.00	205.67
993.00	205.51
994.00	206.57
995.00	206.65
996.00	203.93
997.00	205.20
998.00	206.37
999.00	202.95
1000.00	204.89
>>>>>End Processed Spectral Data<<<<<
