SpectraSuite Data File
++++++++++++++++++++++++++++++++++++
Date: Tue Oct 18 14:45:26 CDT 2011
User: Helimak
Dark Spectrum Present: No
Reference Spectrum Present: No
Number of Sampled Component Spectra: 1
Spectrometers: USB2G37154
Integration Time (usec): 200000 (USB2G37154)
Spectra Averaged: 1 (USB2G37154)
Boxcar Smoothing: 0 (USB2G37154)
Correct for Electrical Dark: No (USB2G37154)
Strobe/Lamp Enabled: No (USB2G37154)
Correct for Detector Non-linearity: No (USB2G37154)
Correct for Stray Light: No (USB2G37154)
Number of Pixels in Processed Spectrum: 651
>>>>>Begin Processed Spectral Data<<<<<
350.00	199.44
351.00	201.27
352.00	197.18
353.00	200.77
354.00	201.99
355.00	203.57
356.00	206.30
357.00	203.89
358.00	206.79
359.00	201.14
360.00	202.57
361.00	203.81
362.00	209.70
363.00	204.40
364.00	208.32
365.00	205.90
366.00	204.78
367.00	205.83
368.00	204.56
369.00	206.14
370.00	210.01
371.00	206.81
372.00	211.23
373.00	208.44
374.00	204.30
375.00	211.10
376.00	213.51
377.00	212.49
378.00	222.53
379.00	218.12
380.00	220.73
381.00	218.12
382.00	217.46
383.00	222.94
384.00	224.20
385.00	225.44
386.00	229.97
387.00	229.22
388.00	225.66
389.00	219.79
390.00	219.34
391.00	224.01
392.00	224.80
393.00	225.09
394.00	228.43
395.00	223.80
396.00	225.03
397.00	218.11
398.00	221.34
399.00	225.34
400.00	243.88
401.00	250.46
402.00	247.22
403.00	256.77
404.00	258.21
405.00	246.77
406.00	255.02
407.00	261.69
408.00	240.74
409.00	243.35
410.00	241.03
411.00	230.34
412.00	234.07
413.00	231.86
414.00	235.11
415.00	285.35
416.00	263.14
417.00	244.79
418.00	267.28
419.00	347.46
420.00	300.37
421.00	244.83
422.00	267.00
423.00	251.72
424.00	243.92
425.00	319.44
426.00	363.94
427.00	354.50
428.00	289.56
429.00	288.31
430.00	275.77
431.00	255.36
432.00	293.80
433.00	341.34
434.00	613.86
435.00	408.12
436.00	306.97
437.00	299.30
438.00	264.10
439.00	307.86
440.00	285.26
441.00	277.79
442.00	436.10
443.00	321.86
444.00	253.64
445.00	236.80
446.00	238.15
447.00	252.72
448.00	252.28
449.00	248.95
450.00	262.48
451.00	259.38
452.00	255.71
453.00	271.98
454.00	313.37
455.00	282.05
456.00	276.74
457.00	300.41
458.00	361.33
459.00	321.13
460.00	431.01
461.00	347.82
462.00	276.75
463.00	254.12
464.00	249.99
465.00	293.13
466.00	271.06
467.00	255.15
468.00	254.15
469.00	251.87
470.00	248.84
471.00	254.09
472.00	304.25
473.00	319.13
474.00	270.36
475.00	259.82
476.00	311.56
477.00	267.51
478.00	248.31
479.00	257.19
480.00	474.58
481.00	325.16
482.00	270.63
483.00	253.87
484.00	294.77
485.00	318.57
486.00	325.92
487.00	592.63
488.00	488.89
489.00	333.62
490.00	286.99
491.00	277.71
492.00	271.79
493.00	283.86
494.00	262.10
495.00	258.23
496.00	306.72
497.00	275.45
498.00	259.45
499.00	263.64
500.00	296.71
501.00	325.65
502.00	278.01
503.00	255.97
504.00	276.38
505.00	297.32
506.00	307.47
507.00	302.21
508.00	298.97
509.00	278.22
510.00	266.29
511.00	257.04
512.00	259.50
513.00	271.86
514.00	311.40
515.00	281.40
516.00	271.62
517.00	261.61
518.00	282.71
519.00	270.11
520.00	254.00
521.00	255.27
522.00	260.53
523.00	252.81
524.00	250.42
525.00	268.02
526.00	256.11
527.00	248.00
528.00	251.98
529.00	247.75
530.00	244.21
531.00	251.52
532.00	257.90
533.00	264.75
534.00	267.63
535.00	275.99
536.00	273.76
537.00	269.78
538.00	261.15
539.00	262.79
540.00	256.85
541.00	257.54
542.00	262.41
543.00	256.27
544.00	270.08
545.00	279.31
546.00	272.94
547.00	279.06
548.00	266.13
549.00	302.46
550.00	293.84
551.00	270.01
552.00	263.62
553.00	262.82
554.00	257.47
555.00	278.38
556.00	296.45
557.00	273.68
558.00	251.79
559.00	249.42
560.00	276.07
561.00	259.00
562.00	248.90
563.00	244.62
564.00	253.67
565.00	267.89
566.00	254.13
567.00	259.44
568.00	260.19
569.00	261.74
570.00	258.33
571.00	260.32
572.00	241.74
573.00	248.73
574.00	255.75
575.00	244.95
576.00	242.79
577.00	250.33
578.00	242.40
579.00	242.00
580.00	242.30
581.00	239.87
582.00	238.21
583.00	240.67
584.00	239.75
585.00	236.13
586.00	244.89
587.00	244.08
588.00	259.89
589.00	275.18
590.00	248.07
591.00	258.83
592.00	247.83
593.00	248.71
594.00	239.05
595.00	237.68
596.00	234.03
597.00	239.38
598.00	243.52
599.00	244.33
600.00	247.17
601.00	252.12
602.00	262.55
603.00	355.62
604.00	318.88
605.00	284.04
606.00	261.49
607.00	238.37
608.00	226.28
609.00	227.84
610.00	246.75
611.00	270.06
612.00	260.04
613.00	240.53
614.00	236.76
615.00	242.15
616.00	240.87
617.00	274.93
618.00	248.43
619.00	245.97
620.00	236.33
621.00	253.37
622.00	244.38
623.00	226.65
624.00	246.72
625.00	244.75
626.00	240.04
627.00	237.20
628.00	243.15
629.00	244.73
630.00	248.29
631.00	249.27
632.00	231.20
633.00	234.11
634.00	222.68
635.00	223.99
636.00	231.83
637.00	234.38
638.00	227.78
639.00	229.81
640.00	240.64
641.00	240.07
642.00	258.43
643.00	238.07
644.00	232.30
645.00	228.65
646.00	233.06
647.00	231.25
648.00	231.64
649.00	226.49
650.00	223.35
651.00	223.81
652.00	223.46
653.00	224.49
654.00	235.70
655.00	230.01
656.00	334.16
657.00	312.88
658.00	255.99
659.00	227.30
660.00	229.44
661.00	220.27
662.00	217.09
663.00	215.11
664.00	247.36
665.00	240.37
666.00	226.14
667.00	223.53
668.00	234.04
669.00	229.17
670.00	220.35
671.00	220.50
672.00	222.06
673.00	225.02
674.00	222.11
675.00	261.03
676.00	266.23
677.00	232.08
678.00	220.77
679.00	213.30
680.00	215.35
681.00	221.07
682.00	220.34
683.00	214.42
684.00	215.79
685.00	216.39
686.00	216.00
687.00	237.75
688.00	233.95
689.00	229.94
690.00	219.69
691.00	216.81
692.00	217.75
693.00	217.65
694.00	241.07
695.00	229.78
696.00	248.01
697.00	392.70
698.00	266.09
699.00	233.56
700.00	225.59
701.00	222.71
702.00	220.10
703.00	249.78
704.00	246.24
705.00	225.08
706.00	224.98
707.00	325.50
708.00	250.72
709.00	231.36
710.00	215.86
711.00	217.21
712.00	214.59
713.00	214.18
714.00	216.37
715.00	228.76
716.00	222.62
717.00	212.68
718.00	212.70
719.00	210.70
720.00	213.35
721.00	217.81
722.00	216.91
723.00	215.19
724.00	219.56
725.00	232.11
726.00	217.41
727.00	229.48
728.00	245.84
729.00	223.52
730.00	215.40
731.00	214.17
732.00	216.12
733.00	216.28
734.00	210.44
735.00	212.41
736.00	229.53
737.00	240.62
738.00	299.28
739.00	371.81
740.00	259.63
741.00	224.87
742.00	216.05
743.00	216.00
744.00	218.27
745.00	225.46
746.00	209.18
747.00	211.00
748.00	212.24
749.00	215.84
750.00	281.17
751.00	642.65
752.00	524.68
753.00	316.80
754.00	230.82
755.00	214.78
756.00	210.46
757.00	208.09
758.00	210.13
759.00	212.10
760.00	212.42
761.00	212.68
762.00	210.01
763.00	249.47
764.00	1041.25
765.00	543.29
766.00	326.39
767.00	228.00
768.00	209.46
769.00	207.40
770.00	206.57
771.00	207.75
772.00	220.61
773.00	379.75
774.00	274.29
775.00	230.13
776.00	207.90
777.00	223.31
778.00	297.98
779.00	243.51
780.00	224.72
781.00	205.40
782.00	201.72
783.00	207.46
784.00	200.71
785.00	207.67
786.00	209.05
787.00	212.18
788.00	209.26
789.00	219.00
790.00	218.52
791.00	212.99
792.00	210.20
793.00	210.45
794.00	213.82
795.00	332.19
796.00	336.18
797.00	248.26
798.00	223.48
799.00	210.84
800.00	209.02
801.00	315.43
802.00	459.81
803.00	324.88
804.00	246.55
805.00	220.74
806.00	214.08
807.00	207.85
808.00	211.94
809.00	213.00
810.00	224.24
811.00	441.82
812.00	2011.95
813.00	1187.89
814.00	515.50
815.00	325.94
816.00	220.86
817.00	210.99
818.00	210.98
819.00	209.95
820.00	207.04
821.00	210.03
822.00	204.54
823.00	210.29
824.00	205.94
825.00	212.02
826.00	208.12
827.00	288.94
828.00	247.70
829.00	222.48
830.00	211.09
831.00	206.02
832.00	206.22
833.00	207.64
834.00	206.28
835.00	205.77
836.00	204.44
837.00	209.13
838.00	204.79
839.00	208.83
840.00	206.59
841.00	260.91
842.00	299.97
843.00	459.91
844.00	328.23
845.00	254.29
846.00	231.33
847.00	208.92
848.00	202.88
849.00	207.55
850.00	207.91
851.00	204.15
852.00	218.27
853.00	265.40
854.00	223.40
855.00	212.28
856.00	215.47
857.00	207.42
858.00	208.73
859.00	206.24
860.00	206.58
861.00	212.33
862.00	207.40
863.00	205.93
864.00	213.13
865.00	207.63
866.00	206.01
867.00	209.51
868.00	212.00
869.00	207.30
870.00	207.59
871.00	205.88
872.00	201.21
873.00	207.69
874.00	205.48
875.00	207.55
876.00	202.11
877.00	208.60
878.00	206.91
879.00	205.27
880.00	205.95
881.00	208.36
882.00	205.22
883.00	204.08
884.00	203.00
885.00	202.80
886.00	204.93
887.00	207.46
888.00	204.74
889.00	206.28
890.00	206.88
891.00	204.23
892.00	201.78
893.00	202.50
894.00	203.70
895.00	209.79
896.00	202.36
897.00	202.33
898.00	202.35
899.00	200.01
900.00	202.50
901.00	204.17
902.00	204.62
903.00	208.73
904.00	202.27
905.00	201.06
906.00	203.68
907.00	207.14
908.00	207.15
909.00	207.35
910.00	208.56
911.00	204.90
912.00	222.78
913.00	322.16
914.00	280.09
915.00	236.88
916.00	229.19
917.00	213.52
918.00	205.14
919.00	204.30
920.00	203.12
921.00	206.03
922.00	204.58
923.00	227.58
924.00	216.54
925.00	217.79
926.00	204.00
927.00	212.25
928.00	203.48
929.00	206.11
930.00	206.50
931.00	205.47
932.00	203.10
933.00	202.40
934.00	210.29
935.00	204.68
936.00	203.66
937.00	206.84
938.00	205.33
939.00	203.16
940.00	206.38
941.00	205.06
942.00	206.03
943.00	202.75
944.00	204.03
945.00	211.01
946.00	200.88
947.00	203.20
948.00	202.62
949.00	205.33
950.00	203.88
951.00	207.56
952.00	205.05
953.00	206.16
954.00	200.30
955.00	202.97
956.00	201.54
957.00	197.90
958.00	203.27
959.00	201.94
960.00	200.32
961.00	201.00
962.00	206.17
963.00	206.11
964.00	200.65
965.00	202.27
966.00	207.50
967.00	214.62
968.00	212.96
969.00	207.63
970.00	201.41
971.00	204.80
972.00	206.10
973.00	203.52
974.00	201.26
975.00	199.50
976.00	206.31
977.00	197.96
978.00	205.67
979.00	203.77
980.00	205.72
981.00	201.05
982.00	205.62
983.00	204.32
984.00	205.29
985.00	206.66
986.00	201.55
987.00	204.29
988.00	203.46
989.00	202.30
990.00	203.81
991.00	204.01
992.00	206.07
993.00	205.44
994.00	203.97
995.00	203.95
996.00	203.11
997.00	203.71
998.00	202.84
999.00	203.53
1000.00	206.94
>>>>>End Processed Spectral Data<<<<<
