SpectraSuite Data File
++++++++++++++++++++++++++++++++++++
Date: Tue Oct 18 14:43:25 CDT 2011
User: Helimak
Dark Spectrum Present: No
Reference Spectrum Present: No
Number of Sampled Component Spectra: 1
Spectrometers: USB2G37154
Integration Time (usec): 200000 (USB2G37154)
Spectra Averaged: 1 (USB2G37154)
Boxcar Smoothing: 0 (USB2G37154)
Correct for Electrical Dark: No (USB2G37154)
Strobe/Lamp Enabled: No (USB2G37154)
Correct for Detector Non-linearity: No (USB2G37154)
Correct for Stray Light: No (USB2G37154)
Number of Pixels in Processed Spectrum: 651
>>>>>Begin Processed Spectral Data<<<<<
350.00	201.49
351.00	203.93
352.00	199.48
353.00	201.69
354.00	204.21
355.00	204.16
356.00	206.33
357.00	207.34
358.00	215.03
359.00	210.98
360.00	207.36
361.00	207.74
362.00	211.48
363.00	208.63
364.00	211.63
365.00	211.28
366.00	213.75
367.00	215.89
368.00	209.37
369.00	211.75
370.00	214.98
371.00	213.62
372.00	222.89
373.00	217.20
374.00	216.19
375.00	224.17
376.00	224.01
377.00	229.32
378.00	234.47
379.00	236.40
380.00	239.56
381.00	240.50
382.00	238.95
383.00	242.75
384.00	258.08
385.00	263.02
386.00	257.08
387.00	257.85
388.00	245.83
389.00	241.47
390.00	237.57
391.00	242.34
392.00	259.79
393.00	260.30
394.00	261.97
395.00	251.96
396.00	252.94
397.00	245.64
398.00	243.59
399.00	260.18
400.00	298.94
401.00	324.46
402.00	318.45
403.00	337.33
404.00	346.63
405.00	313.03
406.00	350.08
407.00	370.42
408.00	300.01
409.00	311.88
410.00	319.26
411.00	274.95
412.00	293.87
413.00	280.27
414.00	268.72
415.00	371.37
416.00	336.29
417.00	306.11
418.00	353.37
419.00	528.75
420.00	425.90
421.00	315.87
422.00	381.39
423.00	340.14
424.00	309.94
425.00	471.50
426.00	590.98
427.00	609.34
428.00	422.10
429.00	390.93
430.00	370.26
431.00	324.97
432.00	424.44
433.00	555.43
434.00	1559.04
435.00	879.68
436.00	532.76
437.00	476.91
438.00	380.30
439.00	511.77
440.00	462.44
441.00	430.73
442.00	966.01
443.00	577.50
444.00	348.68
445.00	291.15
446.00	280.98
447.00	333.26
448.00	327.43
449.00	296.15
450.00	324.91
451.00	318.28
452.00	313.35
453.00	357.43
454.00	500.86
455.00	395.46
456.00	368.76
457.00	468.68
458.00	688.95
459.00	545.13
460.00	909.50
461.00	641.82
462.00	394.26
463.00	327.87
464.00	304.64
465.00	442.69
466.00	361.61
467.00	308.21
468.00	300.37
469.00	309.15
470.00	311.67
471.00	314.87
472.00	486.92
473.00	556.32
474.00	368.27
475.00	335.93
476.00	527.93
477.00	354.25
478.00	299.42
479.00	330.65
480.00	1112.76
481.00	561.32
482.00	360.56
483.00	305.76
484.00	475.40
485.00	506.48
486.00	516.99
487.00	1418.96
488.00	1123.95
489.00	569.27
490.00	398.31
491.00	350.90
492.00	360.38
493.00	392.29
494.00	334.83
495.00	332.12
496.00	501.57
497.00	380.23
498.00	329.90
499.00	315.75
500.00	452.56
501.00	552.24
502.00	394.08
503.00	331.24
504.00	367.84
505.00	423.62
506.00	459.57
507.00	421.86
508.00	403.83
509.00	367.66
510.00	336.34
511.00	324.08
512.00	327.34
513.00	352.37
514.00	511.51
515.00	385.25
516.00	351.54
517.00	318.59
518.00	361.55
519.00	342.77
520.00	302.21
521.00	310.21
522.00	312.76
523.00	303.26
524.00	312.11
525.00	327.11
526.00	311.09
527.00	301.87
528.00	305.59
529.00	293.70
530.00	288.83
531.00	306.01
532.00	313.40
533.00	326.19
534.00	328.42
535.00	347.11
536.00	332.50
537.00	337.27
538.00	333.51
539.00	321.28
540.00	315.13
541.00	323.75
542.00	330.79
543.00	320.80
544.00	329.38
545.00	349.89
546.00	345.44
547.00	361.31
548.00	333.75
549.00	403.73
550.00	390.92
551.00	354.89
552.00	331.66
553.00	325.28
554.00	316.43
555.00	356.90
556.00	371.58
557.00	335.77
558.00	301.86
559.00	304.64
560.00	341.87
561.00	314.91
562.00	294.09
563.00	288.74
564.00	298.16
565.00	327.55
566.00	312.66
567.00	322.10
568.00	327.24
569.00	320.03
570.00	311.42
571.00	305.30
572.00	286.28
573.00	288.01
574.00	311.47
575.00	284.19
576.00	281.89
577.00	292.97
578.00	286.64
579.00	285.52
580.00	287.83
581.00	276.32
582.00	266.57
583.00	283.27
584.00	282.62
585.00	268.89
586.00	283.37
587.00	282.05
588.00	314.80
589.00	342.90
590.00	295.81
591.00	293.78
592.00	285.99
593.00	294.91
594.00	283.06
595.00	268.00
596.00	262.42
597.00	275.58
598.00	276.83
599.00	290.24
600.00	292.67
601.00	298.25
602.00	307.52
603.00	518.47
604.00	447.61
605.00	355.29
606.00	329.36
607.00	273.39
608.00	260.81
609.00	256.79
610.00	294.13
611.00	369.71
612.00	352.19
613.00	281.43
614.00	273.78
615.00	281.55
616.00	282.71
617.00	367.80
618.00	302.74
619.00	281.29
620.00	270.83
621.00	293.93
622.00	280.47
623.00	255.22
624.00	296.06
625.00	296.15
626.00	284.16
627.00	277.03
628.00	276.33
629.00	281.04
630.00	293.12
631.00	290.96
632.00	264.74
633.00	254.23
634.00	249.88
635.00	245.01
636.00	250.86
637.00	255.83
638.00	257.18
639.00	259.28
640.00	274.16
641.00	287.73
642.00	329.32
643.00	274.39
644.00	258.31
645.00	255.11
646.00	265.03
647.00	262.92
648.00	266.42
649.00	255.03
650.00	252.50
651.00	243.70
652.00	249.78
653.00	250.47
654.00	257.63
655.00	252.19
656.00	520.58
657.00	468.32
658.00	324.98
659.00	257.58
660.00	247.46
661.00	245.05
662.00	238.31
663.00	233.21
664.00	313.57
665.00	308.76
666.00	254.04
667.00	244.87
668.00	269.60
669.00	277.17
670.00	250.47
671.00	239.14
672.00	239.86
673.00	231.98
674.00	236.26
675.00	316.57
676.00	327.97
677.00	256.03
678.00	237.24
679.00	230.94
680.00	227.72
681.00	227.01
682.00	228.49
683.00	230.06
684.00	233.57
685.00	230.60
686.00	227.63
687.00	280.73
688.00	279.68
689.00	266.03
690.00	233.11
691.00	233.33
692.00	226.58
693.00	234.73
694.00	277.97
695.00	264.77
696.00	316.03
697.00	594.27
698.00	337.37
699.00	263.70
700.00	242.95
701.00	238.24
702.00	236.55
703.00	300.95
704.00	289.06
705.00	250.97
706.00	238.37
707.00	466.72
708.00	319.40
709.00	254.26
710.00	223.19
711.00	236.47
712.00	229.87
713.00	226.40
714.00	226.29
715.00	260.32
716.00	242.81
717.00	227.73
718.00	223.88
719.00	220.50
720.00	221.63
721.00	234.01
722.00	227.59
723.00	230.26
724.00	228.94
725.00	246.70
726.00	229.41
727.00	254.42
728.00	289.37
729.00	244.55
730.00	231.97
731.00	227.57
732.00	228.09
733.00	224.78
734.00	218.54
735.00	235.13
736.00	258.83
737.00	278.11
738.00	392.26
739.00	574.74
740.00	335.33
741.00	252.74
742.00	239.05
743.00	223.00
744.00	240.89
745.00	234.35
746.00	217.85
747.00	220.30
748.00	217.97
749.00	228.89
750.00	359.12
751.00	1197.48
752.00	904.89
753.00	452.97
754.00	277.71
755.00	229.61
756.00	219.46
757.00	215.32
758.00	218.14
759.00	227.47
760.00	221.81
761.00	213.74
762.00	227.49
763.00	296.09
764.00	1975.04
765.00	930.76
766.00	457.03
767.00	256.96
768.00	221.04
769.00	214.27
770.00	212.96
771.00	210.64
772.00	241.22
773.00	580.37
774.00	354.30
775.00	261.16
776.00	215.77
777.00	246.24
778.00	478.03
779.00	318.34
780.00	247.76
781.00	216.83
782.00	211.02
783.00	211.60
784.00	217.20
785.00	213.80
786.00	219.16
787.00	218.19
788.00	222.24
789.00	226.95
790.00	232.27
791.00	225.40
792.00	222.10
793.00	223.46
794.00	221.21
795.00	475.01
796.00	494.12
797.00	302.52
798.00	252.07
799.00	216.74
800.00	217.13
801.00	437.71
802.00	772.62
803.00	465.66
804.00	303.71
805.00	236.71
806.00	225.59
807.00	216.80
808.00	220.26
809.00	226.37
810.00	246.76
811.00	704.72
812.00	3645.67
813.00	2205.67
814.00	856.34
815.00	435.90
816.00	236.99
817.00	222.67
818.00	211.85
819.00	211.31
820.00	213.15
821.00	210.96
822.00	210.82
823.00	211.09
824.00	207.61
825.00	217.97
826.00	212.14
827.00	377.19
828.00	298.87
829.00	242.73
830.00	222.28
831.00	210.83
832.00	210.36
833.00	209.96
834.00	211.20
835.00	210.01
836.00	206.08
837.00	207.79
838.00	210.93
839.00	211.77
840.00	216.68
841.00	340.73
842.00	413.31
843.00	749.51
844.00	481.30
845.00	318.87
846.00	274.73
847.00	222.61
848.00	213.21
849.00	208.06
850.00	210.37
851.00	207.51
852.00	224.56
853.00	339.41
854.00	246.90
855.00	219.25
856.00	225.78
857.00	209.27
858.00	207.88
859.00	207.17
860.00	208.67
861.00	216.14
862.00	209.95
863.00	209.25
864.00	211.09
865.00	207.80
866.00	211.04
867.00	223.79
868.00	225.04
869.00	212.66
870.00	210.63
871.00	207.24
872.00	208.88
873.00	203.30
874.00	205.59
875.00	205.99
876.00	210.95
877.00	205.70
878.00	208.94
879.00	206.74
880.00	209.11
881.00	204.32
882.00	203.92
883.00	206.45
884.00	200.00
885.00	209.81
886.00	205.71
887.00	204.05
888.00	208.93
889.00	202.97
890.00	203.71
891.00	208.34
892.00	207.47
893.00	203.18
894.00	205.02
895.00	207.86
896.00	205.22
897.00	200.13
898.00	204.56
899.00	201.74
900.00	205.18
901.00	206.60
902.00	207.61
903.00	211.08
904.00	205.54
905.00	205.21
906.00	208.64
907.00	206.03
908.00	204.00
909.00	208.52
910.00	210.48
911.00	210.06
912.00	234.49
913.00	449.60
914.00	343.76
915.00	281.73
916.00	251.36
917.00	224.77
918.00	207.53
919.00	206.16
920.00	206.61
921.00	210.42
922.00	206.22
923.00	239.79
924.00	233.28
925.00	223.03
926.00	215.98
927.00	211.26
928.00	209.11
929.00	204.64
930.00	205.94
931.00	204.56
932.00	200.93
933.00	204.17
934.00	202.09
935.00	202.00
936.00	204.89
937.00	204.96
938.00	204.23
939.00	205.22
940.00	207.29
941.00	208.48
942.00	208.05
943.00	206.74
944.00	202.18
945.00	205.38
946.00	209.98
947.00	202.21
948.00	205.18
949.00	207.05
950.00	203.26
951.00	208.05
952.00	203.04
953.00	203.68
954.00	201.48
955.00	205.66
956.00	202.26
957.00	202.12
958.00	204.25
959.00	205.98
960.00	200.85
961.00	204.48
962.00	205.74
963.00	207.21
964.00	201.02
965.00	205.63
966.00	206.28
967.00	216.88
968.00	210.94
969.00	209.27
970.00	211.32
971.00	206.43
972.00	200.91
973.00	209.89
974.00	203.23
975.00	205.34
976.00	204.93
977.00	202.94
978.00	204.31
979.00	205.30
980.00	202.66
981.00	207.12
982.00	205.39
983.00	208.45
984.00	203.86
985.00	201.91
986.00	205.69
987.00	207.62
988.00	203.09
989.00	204.67
990.00	205.11
991.00	204.86
992.00	206.63
993.00	203.99
994.00	205.25
995.00	203.52
996.00	203.64
997.00	202.41
998.00	201.96
999.00	202.92
1000.00	204.00
>>>>>End Processed Spectral Data<<<<<
