SpectraSuite Data File
++++++++++++++++++++++++++++++++++++
Date: Tue Oct 18 14:43:24 CDT 2011
User: Helimak
Dark Spectrum Present: No
Reference Spectrum Present: No
Number of Sampled Component Spectra: 1
Spectrometers: USB2G37154
Integration Time (usec): 200000 (USB2G37154)
Spectra Averaged: 1 (USB2G37154)
Boxcar Smoothing: 0 (USB2G37154)
Correct for Electrical Dark: No (USB2G37154)
Strobe/Lamp Enabled: No (USB2G37154)
Correct for Detector Non-linearity: No (USB2G37154)
Correct for Stray Light: No (USB2G37154)
Number of Pixels in Processed Spectrum: 651
>>>>>Begin Processed Spectral Data<<<<<
350.00	204.18
351.00	196.47
352.00	201.22
353.00	203.18
354.00	204.18
355.00	205.10
356.00	208.51
357.00	207.17
358.00	215.06
359.00	208.84
360.00	205.92
361.00	212.75
362.00	213.72
363.00	210.52
364.00	210.89
365.00	207.54
366.00	213.39
367.00	210.99
368.00	213.36
369.00	214.45
370.00	216.04
371.00	218.13
372.00	224.56
373.00	216.68
374.00	215.39
375.00	223.48
376.00	220.72
377.00	228.50
378.00	235.65
379.00	236.30
380.00	242.74
381.00	236.20
382.00	237.99
383.00	244.75
384.00	261.84
385.00	259.14
386.00	257.03
387.00	260.00
388.00	246.88
389.00	233.83
390.00	240.04
391.00	247.63
392.00	258.78
393.00	262.87
394.00	265.36
395.00	250.96
396.00	257.02
397.00	247.70
398.00	245.51
399.00	264.64
400.00	305.29
401.00	334.32
402.00	320.72
403.00	342.80
404.00	348.36
405.00	311.66
406.00	347.07
407.00	368.15
408.00	304.07
409.00	304.03
410.00	318.92
411.00	274.40
412.00	301.23
413.00	286.04
414.00	267.83
415.00	369.51
416.00	326.63
417.00	306.73
418.00	345.68
419.00	537.80
420.00	419.05
421.00	312.03
422.00	383.19
423.00	333.08
424.00	301.73
425.00	463.19
426.00	588.52
427.00	619.51
428.00	422.96
429.00	390.21
430.00	375.82
431.00	319.65
432.00	422.30
433.00	563.61
434.00	1562.92
435.00	897.78
436.00	530.79
437.00	474.14
438.00	385.81
439.00	523.81
440.00	450.80
441.00	433.11
442.00	968.07
443.00	576.53
444.00	354.82
445.00	285.60
446.00	281.06
447.00	333.09
448.00	325.52
449.00	296.13
450.00	331.52
451.00	325.79
452.00	315.70
453.00	353.99
454.00	506.42
455.00	400.68
456.00	363.58
457.00	470.67
458.00	685.37
459.00	535.87
460.00	931.41
461.00	635.07
462.00	400.31
463.00	330.09
464.00	313.02
465.00	442.00
466.00	359.71
467.00	306.00
468.00	304.41
469.00	311.71
470.00	312.90
471.00	313.16
472.00	494.64
473.00	562.66
474.00	372.08
475.00	343.34
476.00	526.80
477.00	361.52
478.00	296.92
479.00	333.37
480.00	1119.05
481.00	559.80
482.00	354.28
483.00	306.14
484.00	469.92
485.00	499.49
486.00	520.89
487.00	1425.84
488.00	1147.12
489.00	570.63
490.00	396.11
491.00	349.43
492.00	349.67
493.00	398.03
494.00	326.68
495.00	336.36
496.00	493.33
497.00	388.47
498.00	324.74
499.00	316.79
500.00	459.03
501.00	556.38
502.00	384.10
503.00	330.74
504.00	376.80
505.00	422.08
506.00	463.62
507.00	428.05
508.00	398.55
509.00	367.95
510.00	329.43
511.00	319.99
512.00	322.29
513.00	349.91
514.00	507.75
515.00	380.71
516.00	360.93
517.00	313.87
518.00	357.79
519.00	335.59
520.00	303.14
521.00	312.08
522.00	319.63
523.00	302.20
524.00	305.77
525.00	336.15
526.00	313.95
527.00	300.94
528.00	300.65
529.00	292.74
530.00	294.35
531.00	300.23
532.00	319.21
533.00	324.65
534.00	332.85
535.00	347.05
536.00	334.93
537.00	335.76
538.00	332.32
539.00	323.16
540.00	318.37
541.00	322.28
542.00	327.24
543.00	324.13
544.00	332.47
545.00	352.22
546.00	346.11
547.00	363.58
548.00	335.24
549.00	399.77
550.00	392.34
551.00	354.92
552.00	332.92
553.00	326.98
554.00	319.90
555.00	356.01
556.00	371.41
557.00	345.37
558.00	302.20
559.00	304.79
560.00	339.73
561.00	317.23
562.00	289.86
563.00	282.78
564.00	298.08
565.00	328.49
566.00	313.96
567.00	319.26
568.00	328.25
569.00	326.13
570.00	315.66
571.00	303.41
572.00	285.89
573.00	300.79
574.00	315.34
575.00	286.54
576.00	280.98
577.00	295.08
578.00	286.50
579.00	284.71
580.00	284.43
581.00	273.33
582.00	265.20
583.00	279.95
584.00	277.01
585.00	268.87
586.00	282.90
587.00	282.16
588.00	318.19
589.00	344.83
590.00	299.78
591.00	298.86
592.00	291.63
593.00	289.88
594.00	279.04
595.00	266.03
596.00	262.14
597.00	267.21
598.00	279.02
599.00	291.34
600.00	299.56
601.00	306.39
602.00	317.29
603.00	508.85
604.00	438.66
605.00	354.42
606.00	324.68
607.00	281.67
608.00	255.96
609.00	258.98
610.00	292.03
611.00	371.76
612.00	342.85
613.00	278.28
614.00	271.74
615.00	289.05
616.00	289.13
617.00	376.84
618.00	300.20
619.00	277.98
620.00	265.10
621.00	295.65
622.00	276.16
623.00	255.25
624.00	293.44
625.00	302.48
626.00	283.02
627.00	277.33
628.00	272.59
629.00	274.59
630.00	288.29
631.00	295.30
632.00	264.29
633.00	248.85
634.00	245.98
635.00	251.04
636.00	248.74
637.00	257.66
638.00	249.84
639.00	257.28
640.00	267.95
641.00	283.21
642.00	321.18
643.00	269.75
644.00	265.63
645.00	257.40
646.00	260.95
647.00	260.88
648.00	264.13
649.00	255.63
650.00	248.29
651.00	247.45
652.00	249.02
653.00	253.08
654.00	257.27
655.00	251.05
656.00	507.99
657.00	468.63
658.00	318.96
659.00	261.72
660.00	250.44
661.00	245.24
662.00	231.20
663.00	229.24
664.00	314.36
665.00	309.17
666.00	254.51
667.00	247.49
668.00	268.79
669.00	282.97
670.00	244.21
671.00	237.32
672.00	234.05
673.00	235.99
674.00	238.18
675.00	315.87
676.00	325.91
677.00	257.79
678.00	236.72
679.00	230.56
680.00	229.58
681.00	229.83
682.00	230.45
683.00	232.79
684.00	232.90
685.00	232.57
686.00	227.31
687.00	281.57
688.00	269.63
689.00	264.38
690.00	240.72
691.00	228.09
692.00	231.38
693.00	222.37
694.00	282.08
695.00	258.87
696.00	316.02
697.00	591.54
698.00	335.07
699.00	270.83
700.00	243.09
701.00	237.21
702.00	234.47
703.00	305.06
704.00	290.35
705.00	243.58
706.00	240.35
707.00	467.06
708.00	321.63
709.00	259.39
710.00	222.84
711.00	233.24
712.00	229.43
713.00	226.56
714.00	225.32
715.00	257.81
716.00	245.61
717.00	231.49
718.00	221.36
719.00	220.33
720.00	221.00
721.00	233.97
722.00	228.76
723.00	226.62
724.00	232.14
725.00	245.83
726.00	223.72
727.00	254.77
728.00	294.18
729.00	242.61
730.00	224.70
731.00	231.14
732.00	229.09
733.00	225.21
734.00	220.13
735.00	229.59
736.00	256.11
737.00	284.84
738.00	384.25
739.00	572.73
740.00	339.31
741.00	249.57
742.00	225.96
743.00	229.12
744.00	243.86
745.00	227.53
746.00	216.64
747.00	217.37
748.00	221.53
749.00	230.78
750.00	355.46
751.00	1189.76
752.00	902.49
753.00	459.12
754.00	275.88
755.00	225.12
756.00	219.14
757.00	216.98
758.00	219.78
759.00	222.99
760.00	224.04
761.00	223.66
762.00	225.49
763.00	294.01
764.00	1977.07
765.00	944.12
766.00	448.90
767.00	258.04
768.00	224.46
769.00	213.86
770.00	209.85
771.00	213.61
772.00	246.85
773.00	580.16
774.00	350.11
775.00	258.53
776.00	215.32
777.00	250.07
778.00	479.04
779.00	317.34
780.00	241.44
781.00	211.55
782.00	209.58
783.00	212.57
784.00	212.19
785.00	213.82
786.00	218.23
787.00	217.96
788.00	220.92
789.00	225.95
790.00	237.24
791.00	226.14
792.00	221.41
793.00	222.21
794.00	221.92
795.00	467.52
796.00	494.28
797.00	302.83
798.00	254.04
799.00	222.00
800.00	218.51
801.00	443.73
802.00	769.39
803.00	468.78
804.00	301.77
805.00	238.27
806.00	224.32
807.00	217.94
808.00	220.76
809.00	227.46
810.00	243.57
811.00	702.34
812.00	3671.72
813.00	2213.23
814.00	819.93
815.00	442.79
816.00	235.23
817.00	218.11
818.00	213.22
819.00	216.58
820.00	208.51
821.00	211.07
822.00	209.38
823.00	213.41
824.00	205.37
825.00	214.12
826.00	213.24
827.00	373.59
828.00	298.19
829.00	241.57
830.00	221.38
831.00	209.77
832.00	210.07
833.00	215.11
834.00	210.10
835.00	206.14
836.00	204.85
837.00	209.05
838.00	209.69
839.00	210.95
840.00	212.50
841.00	334.35
842.00	411.68
843.00	760.20
844.00	483.46
845.00	318.60
846.00	273.29
847.00	222.89
848.00	210.77
849.00	207.81
850.00	208.92
851.00	209.66
852.00	223.21
853.00	328.63
854.00	244.81
855.00	221.93
856.00	221.90
857.00	206.71
858.00	209.68
859.00	207.07
860.00	206.16
861.00	214.57
862.00	206.58
863.00	211.43
864.00	211.43
865.00	208.61
866.00	205.04
867.00	218.97
868.00	221.07
869.00	214.84
870.00	209.04
871.00	212.06
872.00	206.89
873.00	213.28
874.00	207.20
875.00	207.90
876.00	206.91
877.00	208.03
878.00	209.30
879.00	206.88
880.00	207.96
881.00	205.39
882.00	207.87
883.00	206.47
884.00	200.00
885.00	206.64
886.00	206.72
887.00	205.41
888.00	207.12
889.00	202.86
890.00	202.07
891.00	207.33
892.00	201.43
893.00	202.70
894.00	204.11
895.00	207.92
896.00	201.55
897.00	201.78
898.00	206.05
899.00	204.05
900.00	204.72
901.00	207.98
902.00	204.53
903.00	210.69
904.00	202.07
905.00	206.01
906.00	206.86
907.00	206.83
908.00	209.10
909.00	204.09
910.00	210.68
911.00	206.85
912.00	241.41
913.00	448.77
914.00	343.84
915.00	282.21
916.00	253.40
917.00	223.29
918.00	214.90
919.00	210.37
920.00	207.75
921.00	208.41
922.00	205.18
923.00	241.76
924.00	228.45
925.00	220.43
926.00	212.99
927.00	211.99
928.00	202.59
929.00	199.85
930.00	206.33
931.00	206.83
932.00	203.79
933.00	204.35
934.00	207.38
935.00	201.64
936.00	206.65
937.00	200.08
938.00	206.64
939.00	204.04
940.00	199.06
941.00	209.22
942.00	207.93
943.00	204.74
944.00	197.86
945.00	209.43
946.00	206.66
947.00	209.06
948.00	202.49
949.00	205.60
950.00	203.36
951.00	206.25
952.00	202.98
953.00	203.98
954.00	199.48
955.00	207.55
956.00	203.16
957.00	206.23
958.00	204.48
959.00	206.96
960.00	205.09
961.00	201.93
962.00	201.72
963.00	202.08
964.00	197.90
965.00	205.47
966.00	209.26
967.00	219.88
968.00	212.99
969.00	212.61
970.00	204.60
971.00	202.89
972.00	202.78
973.00	207.75
974.00	203.88
975.00	204.47
976.00	205.53
977.00	202.76
978.00	203.92
979.00	204.41
980.00	204.38
981.00	205.73
982.00	201.97
983.00	203.97
984.00	200.42
985.00	205.56
986.00	205.77
987.00	201.11
988.00	205.88
989.00	202.15
990.00	205.56
991.00	206.11
992.00	202.28
993.00	207.06
994.00	200.71
995.00	202.99
996.00	204.63
997.00	202.78
998.00	203.95
999.00	205.68
1000.00	203.35
>>>>>End Processed Spectral Data<<<<<
