SpectraSuite Data File
++++++++++++++++++++++++++++++++++++
Date: Tue Oct 18 14:30:42 CDT 2011
User: Helimak
Dark Spectrum Present: No
Reference Spectrum Present: No
Number of Sampled Component Spectra: 1
Spectrometers: USB2G37154
Integration Time (usec): 200000 (USB2G37154)
Spectra Averaged: 1 (USB2G37154)
Boxcar Smoothing: 0 (USB2G37154)
Correct for Electrical Dark: No (USB2G37154)
Strobe/Lamp Enabled: No (USB2G37154)
Correct for Detector Non-linearity: No (USB2G37154)
Correct for Stray Light: No (USB2G37154)
Number of Pixels in Processed Spectrum: 651
>>>>>Begin Processed Spectral Data<<<<<
350.00	203.87
351.00	207.20
352.00	203.81
353.00	204.68
354.00	207.76
355.00	206.07
356.00	211.35
357.00	205.97
358.00	216.26
359.00	206.32
360.00	211.95
361.00	209.43
362.00	215.08
363.00	207.81
364.00	205.79
365.00	208.12
366.00	211.72
367.00	212.94
368.00	214.17
369.00	217.80
370.00	217.09
371.00	216.66
372.00	224.82
373.00	225.52
374.00	212.51
375.00	223.41
376.00	229.84
377.00	228.10
378.00	236.26
379.00	236.97
380.00	243.03
381.00	243.79
382.00	240.07
383.00	236.74
384.00	261.00
385.00	263.13
386.00	259.01
387.00	257.09
388.00	250.12
389.00	236.37
390.00	240.10
391.00	248.79
392.00	263.56
393.00	267.04
394.00	272.17
395.00	254.03
396.00	256.00
397.00	247.19
398.00	250.95
399.00	267.84
400.00	313.64
401.00	341.57
402.00	321.45
403.00	350.82
404.00	357.47
405.00	309.87
406.00	367.12
407.00	401.61
408.00	315.43
409.00	320.03
410.00	332.95
411.00	277.47
412.00	296.76
413.00	297.26
414.00	273.88
415.00	389.37
416.00	338.67
417.00	303.52
418.00	358.16
419.00	579.36
420.00	451.94
421.00	320.05
422.00	419.21
423.00	359.64
424.00	309.30
425.00	494.23
426.00	659.67
427.00	659.06
428.00	445.01
429.00	411.24
430.00	376.96
431.00	329.64
432.00	449.11
433.00	603.45
434.00	1849.56
435.00	1016.00
436.00	590.73
437.00	529.17
438.00	404.83
439.00	572.41
440.00	495.43
441.00	470.72
442.00	1131.47
443.00	633.02
444.00	368.76
445.00	287.67
446.00	281.51
447.00	367.82
448.00	348.94
449.00	300.19
450.00	332.58
451.00	328.48
452.00	318.20
453.00	369.19
454.00	545.75
455.00	409.79
456.00	372.42
457.00	499.21
458.00	782.39
459.00	579.15
460.00	1082.13
461.00	712.58
462.00	414.62
463.00	335.22
464.00	311.23
465.00	475.89
466.00	367.05
467.00	314.71
468.00	301.46
469.00	310.35
470.00	310.15
471.00	325.16
472.00	545.59
473.00	625.17
474.00	381.15
475.00	345.03
476.00	602.44
477.00	369.75
478.00	303.44
479.00	336.45
480.00	1300.66
481.00	591.90
482.00	363.36
483.00	303.89
484.00	502.08
485.00	521.19
486.00	526.70
487.00	1702.32
488.00	1307.54
489.00	616.30
490.00	398.83
491.00	347.67
492.00	358.64
493.00	402.52
494.00	330.79
495.00	319.83
496.00	538.71
497.00	394.89
498.00	328.73
499.00	311.62
500.00	488.16
501.00	595.27
502.00	398.11
503.00	331.84
504.00	358.29
505.00	427.07
506.00	472.92
507.00	419.13
508.00	395.59
509.00	356.40
510.00	325.50
511.00	320.04
512.00	316.68
513.00	362.77
514.00	531.95
515.00	388.86
516.00	354.58
517.00	309.58
518.00	367.24
519.00	329.90
520.00	294.14
521.00	298.86
522.00	321.13
523.00	296.46
524.00	304.91
525.00	324.15
526.00	307.62
527.00	291.36
528.00	298.62
529.00	285.92
530.00	290.17
531.00	295.31
532.00	308.95
533.00	318.90
534.00	325.02
535.00	331.96
536.00	330.40
537.00	326.41
538.00	316.07
539.00	316.44
540.00	317.02
541.00	308.30
542.00	321.94
543.00	310.33
544.00	324.68
545.00	347.46
546.00	345.67
547.00	355.10
548.00	327.35
549.00	409.02
550.00	385.07
551.00	357.86
552.00	335.27
553.00	318.89
554.00	315.49
555.00	355.13
556.00	370.79
557.00	345.87
558.00	296.52
559.00	298.36
560.00	343.75
561.00	315.85
562.00	289.91
563.00	280.48
564.00	295.09
565.00	333.28
566.00	314.17
567.00	315.68
568.00	323.99
569.00	314.01
570.00	309.35
571.00	298.50
572.00	281.58
573.00	284.47
574.00	309.38
575.00	275.80
576.00	272.47
577.00	294.09
578.00	280.94
579.00	278.36
580.00	283.82
581.00	266.19
582.00	260.00
583.00	282.02
584.00	271.38
585.00	263.54
586.00	277.61
587.00	280.01
588.00	320.72
589.00	347.18
590.00	292.22
591.00	293.80
592.00	282.68
593.00	301.02
594.00	280.01
595.00	259.43
596.00	256.60
597.00	264.48
598.00	275.32
599.00	287.22
600.00	290.40
601.00	296.23
602.00	306.11
603.00	541.34
604.00	452.31
605.00	362.99
606.00	323.24
607.00	269.30
608.00	254.47
609.00	254.91
610.00	285.57
611.00	390.56
612.00	366.65
613.00	283.23
614.00	275.42
615.00	285.10
616.00	283.71
617.00	397.83
618.00	304.22
619.00	267.53
620.00	269.00
621.00	300.36
622.00	279.01
623.00	253.53
624.00	297.06
625.00	299.12
626.00	273.10
627.00	270.22
628.00	271.72
629.00	271.06
630.00	298.58
631.00	295.43
632.00	259.58
633.00	246.57
634.00	241.66
635.00	249.05
636.00	249.87
637.00	258.48
638.00	252.83
639.00	254.03
640.00	272.00
641.00	284.17
642.00	328.46
643.00	279.06
644.00	261.69
645.00	255.19
646.00	259.96
647.00	261.76
648.00	261.58
649.00	258.66
650.00	248.48
651.00	243.00
652.00	243.27
653.00	240.34
654.00	253.11
655.00	250.09
656.00	520.13
657.00	452.34
658.00	328.97
659.00	259.06
660.00	251.28
661.00	243.52
662.00	231.72
663.00	233.13
664.00	336.27
665.00	323.43
666.00	255.38
667.00	249.64
668.00	276.52
669.00	286.12
670.00	249.08
671.00	233.40
672.00	238.35
673.00	234.04
674.00	233.77
675.00	324.44
676.00	339.94
677.00	257.31
678.00	236.59
679.00	233.22
680.00	224.32
681.00	224.51
682.00	234.94
683.00	224.28
684.00	229.56
685.00	233.33
686.00	229.11
687.00	294.09
688.00	276.49
689.00	265.34
690.00	240.58
691.00	233.59
692.00	229.83
693.00	234.82
694.00	281.44
695.00	263.87
696.00	331.03
697.00	643.34
698.00	350.35
699.00	269.30
700.00	243.79
701.00	235.38
702.00	237.42
703.00	311.41
704.00	288.97
705.00	243.44
706.00	235.67
707.00	500.36
708.00	329.59
709.00	256.68
710.00	221.45
711.00	240.71
712.00	231.26
713.00	225.73
714.00	229.57
715.00	261.49
716.00	245.43
717.00	231.57
718.00	222.18
719.00	217.72
720.00	221.23
721.00	229.47
722.00	229.53
723.00	229.04
724.00	231.42
725.00	247.09
726.00	231.94
727.00	258.00
728.00	295.27
729.00	240.22
730.00	229.51
731.00	226.89
732.00	230.51
733.00	222.76
734.00	219.53
735.00	234.21
736.00	262.40
737.00	291.58
738.00	416.98
739.00	606.42
740.00	340.71
741.00	253.39
742.00	235.03
743.00	229.98
744.00	246.99
745.00	237.08
746.00	216.09
747.00	217.10
748.00	220.65
749.00	231.53
750.00	379.43
751.00	1340.66
752.00	961.16
753.00	479.37
754.00	274.76
755.00	224.20
756.00	218.29
757.00	215.97
758.00	222.82
759.00	221.20
760.00	221.06
761.00	216.42
762.00	229.46
763.00	305.08
764.00	2189.94
765.00	1003.51
766.00	487.36
767.00	261.16
768.00	220.51
769.00	211.77
770.00	215.60
771.00	211.21
772.00	253.12
773.00	615.47
774.00	367.05
775.00	273.78
776.00	214.78
777.00	248.72
778.00	447.06
779.00	306.46
780.00	241.45
781.00	217.90
782.00	212.20
783.00	209.45
784.00	220.84
785.00	213.95
786.00	217.96
787.00	217.63
788.00	220.63
789.00	224.97
790.00	235.40
791.00	221.57
792.00	219.55
793.00	223.82
794.00	218.89
795.00	494.33
796.00	521.56
797.00	308.75
798.00	255.23
799.00	219.16
800.00	216.98
801.00	471.12
802.00	828.76
803.00	493.02
804.00	310.00
805.00	240.30
806.00	226.19
807.00	214.93
808.00	218.40
809.00	221.54
810.00	251.20
811.00	754.28
812.00	3909.58
813.00	2398.50
814.00	900.25
815.00	456.90
816.00	235.68
817.00	220.84
818.00	213.66
819.00	214.76
820.00	208.77
821.00	212.10
822.00	208.35
823.00	210.89
824.00	209.07
825.00	218.23
826.00	211.34
827.00	399.72
828.00	305.47
829.00	244.72
830.00	222.73
831.00	209.66
832.00	208.55
833.00	208.77
834.00	215.17
835.00	209.82
836.00	204.82
837.00	212.56
838.00	209.94
839.00	210.09
840.00	215.24
841.00	352.17
842.00	432.24
843.00	809.95
844.00	504.97
845.00	333.65
846.00	279.43
847.00	219.94
848.00	207.18
849.00	209.79
850.00	205.92
851.00	206.70
852.00	225.79
853.00	348.30
854.00	249.21
855.00	226.87
856.00	220.39
857.00	202.73
858.00	208.99
859.00	207.07
860.00	204.39
861.00	216.12
862.00	211.53
863.00	212.26
864.00	206.00
865.00	211.40
866.00	208.83
867.00	221.06
868.00	223.03
869.00	210.86
870.00	212.39
871.00	206.31
872.00	208.06
873.00	204.94
874.00	204.52
875.00	207.20
876.00	209.83
877.00	211.32
878.00	208.35
879.00	209.89
880.00	208.14
881.00	205.49
882.00	206.48
883.00	204.53
884.00	208.00
885.00	202.95
886.00	205.34
887.00	211.67
888.00	204.18
889.00	206.64
890.00	207.94
891.00	208.10
892.00	209.00
893.00	206.73
894.00	202.69
895.00	213.67
896.00	205.87
897.00	202.96
898.00	200.14
899.00	204.26
900.00	210.03
901.00	206.45
902.00	206.02
903.00	202.81
904.00	201.44
905.00	204.15
906.00	205.68
907.00	208.19
908.00	212.55
909.00	208.21
910.00	208.87
911.00	208.86
912.00	240.18
913.00	478.86
914.00	362.43
915.00	290.03
916.00	265.08
917.00	225.38
918.00	207.29
919.00	206.51
920.00	203.34
921.00	206.10
922.00	210.44
923.00	239.79
924.00	234.78
925.00	224.76
926.00	214.00
927.00	215.10
928.00	203.50
929.00	204.02
930.00	206.57
931.00	205.62
932.00	200.68
933.00	208.08
934.00	200.93
935.00	206.38
936.00	199.27
937.00	207.09
938.00	204.49
939.00	207.23
940.00	204.51
941.00	202.87
942.00	211.03
943.00	201.47
944.00	203.18
945.00	206.04
946.00	204.12
947.00	203.02
948.00	204.60
949.00	201.68
950.00	204.18
951.00	204.19
952.00	202.05
953.00	206.73
954.00	200.30
955.00	205.73
956.00	203.84
957.00	205.97
958.00	201.81
959.00	205.98
960.00	198.41
961.00	204.86
962.00	203.18
963.00	204.44
964.00	206.91
965.00	202.79
966.00	210.24
967.00	216.43
968.00	215.01
969.00	214.39
970.00	208.49
971.00	205.13
972.00	205.89
973.00	204.38
974.00	207.25
975.00	203.13
976.00	206.18
977.00	202.21
978.00	203.15
979.00	203.08
980.00	203.48
981.00	202.25
982.00	203.96
983.00	207.86
984.00	203.51
985.00	206.49
986.00	203.58
987.00	203.00
988.00	208.62
989.00	205.41
990.00	201.03
991.00	202.43
992.00	206.82
993.00	208.55
994.00	203.14
995.00	204.97
996.00	204.53
997.00	202.89
998.00	206.14
999.00	205.35
1000.00	200.34
>>>>>End Processed Spectral Data<<<<<
