SpectraSuite Data File
++++++++++++++++++++++++++++++++++++
Date: Tue Oct 18 14:49:23 CDT 2011
User: Helimak
Dark Spectrum Present: No
Reference Spectrum Present: No
Number of Sampled Component Spectra: 1
Spectrometers: USB2G37154
Integration Time (usec): 200000 (USB2G37154)
Spectra Averaged: 1 (USB2G37154)
Boxcar Smoothing: 0 (USB2G37154)
Correct for Electrical Dark: No (USB2G37154)
Strobe/Lamp Enabled: No (USB2G37154)
Correct for Detector Non-linearity: No (USB2G37154)
Correct for Stray Light: No (USB2G37154)
Number of Pixels in Processed Spectrum: 651
>>>>>Begin Processed Spectral Data<<<<<
350.00	205.76
351.00	199.57
352.00	199.97
353.00	204.32
354.00	204.36
355.00	207.81
356.00	208.36
357.00	205.20
358.00	212.60
359.00	204.07
360.00	207.69
361.00	203.75
362.00	204.61
363.00	205.49
364.00	206.57
365.00	208.84
366.00	210.04
367.00	205.87
368.00	206.87
369.00	209.95
370.00	208.01
371.00	211.43
372.00	207.52
373.00	205.04
374.00	209.03
375.00	210.82
376.00	208.67
377.00	216.23
378.00	216.06
379.00	222.97
380.00	224.74
381.00	219.28
382.00	224.12
383.00	224.87
384.00	228.50
385.00	231.77
386.00	228.93
387.00	237.40
388.00	225.24
389.00	217.83
390.00	224.14
391.00	224.05
392.00	230.16
393.00	229.18
394.00	238.45
395.00	228.39
396.00	223.99
397.00	221.80
398.00	223.59
399.00	230.42
400.00	246.68
401.00	258.41
402.00	253.81
403.00	265.06
404.00	271.11
405.00	256.72
406.00	273.03
407.00	277.68
408.00	250.14
409.00	252.50
410.00	254.31
411.00	240.16
412.00	243.69
413.00	240.58
414.00	231.83
415.00	294.62
416.00	275.30
417.00	256.91
418.00	281.83
419.00	382.86
420.00	316.78
421.00	257.44
422.00	287.66
423.00	269.88
424.00	257.35
425.00	342.94
426.00	388.91
427.00	387.93
428.00	305.21
429.00	299.99
430.00	285.98
431.00	269.27
432.00	310.62
433.00	360.23
434.00	707.52
435.00	463.91
436.00	341.21
437.00	322.66
438.00	280.98
439.00	331.39
440.00	309.28
441.00	299.95
442.00	489.19
443.00	338.65
444.00	267.24
445.00	244.15
446.00	241.41
447.00	268.83
448.00	262.78
449.00	248.80
450.00	270.95
451.00	271.20
452.00	272.93
453.00	280.21
454.00	333.06
455.00	297.12
456.00	295.94
457.00	312.18
458.00	398.42
459.00	345.87
460.00	492.09
461.00	389.27
462.00	292.39
463.00	264.57
464.00	256.06
465.00	315.48
466.00	282.73
467.00	262.11
468.00	259.90
469.00	258.87
470.00	264.14
471.00	257.83
472.00	331.53
473.00	348.61
474.00	283.40
475.00	268.05
476.00	347.15
477.00	277.79
478.00	252.29
479.00	267.51
480.00	537.63
481.00	341.92
482.00	279.97
483.00	267.00
484.00	317.25
485.00	346.55
486.00	355.58
487.00	685.35
488.00	573.63
489.00	355.87
490.00	305.06
491.00	289.07
492.00	284.08
493.00	302.50
494.00	268.73
495.00	270.93
496.00	336.19
497.00	290.31
498.00	269.95
499.00	266.40
500.00	311.59
501.00	350.91
502.00	288.04
503.00	275.12
504.00	296.75
505.00	319.98
506.00	330.40
507.00	325.81
508.00	308.34
509.00	281.02
510.00	274.12
511.00	267.98
512.00	265.08
513.00	284.27
514.00	337.33
515.00	293.16
516.00	289.18
517.00	272.58
518.00	301.59
519.00	286.64
520.00	261.37
521.00	265.05
522.00	272.19
523.00	261.42
524.00	265.75
525.00	277.18
526.00	271.54
527.00	254.74
528.00	256.78
529.00	257.18
530.00	257.11
531.00	257.63
532.00	269.72
533.00	274.26
534.00	278.05
535.00	289.11
536.00	279.04
537.00	282.59
538.00	274.96
539.00	271.37
540.00	271.66
541.00	271.82
542.00	273.27
543.00	274.89
544.00	270.93
545.00	287.88
546.00	285.71
547.00	292.34
548.00	277.46
549.00	322.48
550.00	307.87
551.00	283.94
552.00	278.55
553.00	274.48
554.00	267.18
555.00	292.50
556.00	297.10
557.00	285.87
558.00	256.97
559.00	264.21
560.00	286.92
561.00	265.93
562.00	249.05
563.00	248.64
564.00	255.39
565.00	278.84
566.00	268.81
567.00	272.13
568.00	278.05
569.00	274.43
570.00	265.32
571.00	264.71
572.00	245.50
573.00	255.22
574.00	271.44
575.00	248.55
576.00	250.60
577.00	257.06
578.00	252.12
579.00	250.93
580.00	247.47
581.00	245.38
582.00	241.64
583.00	250.99
584.00	249.01
585.00	243.83
586.00	252.90
587.00	248.06
588.00	268.68
589.00	286.37
590.00	254.57
591.00	260.09
592.00	251.44
593.00	257.34
594.00	252.04
595.00	236.06
596.00	238.47
597.00	243.63
598.00	248.77
599.00	256.42
600.00	257.50
601.00	262.09
602.00	266.60
603.00	386.60
604.00	340.15
605.00	292.68
606.00	272.84
607.00	247.57
608.00	230.93
609.00	237.88
610.00	259.39
611.00	284.66
612.00	267.59
613.00	251.47
614.00	239.78
615.00	251.72
616.00	246.16
617.00	284.93
618.00	257.23
619.00	246.04
620.00	238.49
621.00	260.33
622.00	248.25
623.00	232.15
624.00	250.23
625.00	262.06
626.00	247.04
627.00	249.44
628.00	244.48
629.00	249.38
630.00	260.61
631.00	252.60
632.00	238.27
633.00	231.25
634.00	228.29
635.00	224.02
636.00	231.70
637.00	230.96
638.00	234.65
639.00	234.74
640.00	242.93
641.00	252.75
642.00	270.49
643.00	242.27
644.00	236.58
645.00	233.29
646.00	243.98
647.00	237.26
648.00	239.75
649.00	225.68
650.00	227.48
651.00	228.65
652.00	227.24
653.00	227.80
654.00	231.53
655.00	232.91
656.00	372.71
657.00	335.99
658.00	262.98
659.00	233.02
660.00	236.96
661.00	227.49
662.00	220.64
663.00	215.46
664.00	253.67
665.00	247.90
666.00	230.17
667.00	230.22
668.00	239.50
669.00	232.65
670.00	224.78
671.00	224.19
672.00	223.01
673.00	223.07
674.00	226.22
675.00	265.88
676.00	276.71
677.00	236.54
678.00	225.45
679.00	218.61
680.00	213.39
681.00	217.33
682.00	223.38
683.00	218.57
684.00	224.26
685.00	223.56
686.00	217.88
687.00	247.11
688.00	237.09
689.00	236.05
690.00	223.81
691.00	217.50
692.00	218.10
693.00	223.10
694.00	245.00
695.00	234.08
696.00	264.01
697.00	421.85
698.00	272.32
699.00	233.59
700.00	223.62
701.00	221.90
702.00	222.93
703.00	261.28
704.00	246.97
705.00	228.66
706.00	222.14
707.00	352.10
708.00	273.92
709.00	233.53
710.00	215.91
711.00	220.92
712.00	215.65
713.00	218.48
714.00	217.49
715.00	237.48
716.00	229.87
717.00	220.79
718.00	210.43
719.00	214.49
720.00	212.91
721.00	221.58
722.00	218.51
723.00	221.23
724.00	217.88
725.00	239.24
726.00	219.99
727.00	231.09
728.00	248.11
729.00	228.02
730.00	216.94
731.00	218.80
732.00	217.00
733.00	212.32
734.00	212.05
735.00	218.40
736.00	234.93
737.00	249.21
738.00	303.70
739.00	405.67
740.00	275.27
741.00	230.11
742.00	218.99
743.00	221.02
744.00	226.22
745.00	224.85
746.00	212.24
747.00	209.39
748.00	209.77
749.00	218.39
750.00	289.26
751.00	735.61
752.00	568.51
753.00	340.36
754.00	236.50
755.00	218.39
756.00	210.00
757.00	212.23
758.00	215.57
759.00	221.79
760.00	212.81
761.00	212.53
762.00	214.77
763.00	256.30
764.00	1179.93
765.00	599.40
766.00	335.76
767.00	233.37
768.00	209.19
769.00	207.66
770.00	207.40
771.00	208.78
772.00	225.32
773.00	417.63
774.00	275.76
775.00	232.35
776.00	215.12
777.00	224.71
778.00	318.05
779.00	256.77
780.00	219.43
781.00	208.37
782.00	205.57
783.00	206.00
784.00	211.05
785.00	210.21
786.00	213.95
787.00	214.72
788.00	210.09
789.00	217.93
790.00	215.70
791.00	213.45
792.00	213.95
793.00	214.59
794.00	214.05
795.00	352.59
796.00	360.55
797.00	256.05
798.00	227.49
799.00	211.60
800.00	210.22
801.00	340.44
802.00	512.79
803.00	345.53
804.00	254.25
805.00	222.56
806.00	219.72
807.00	212.81
808.00	210.77
809.00	214.24
810.00	229.07
811.00	486.28
812.00	2311.04
813.00	1322.70
814.00	555.79
815.00	346.23
816.00	219.79
817.00	211.79
818.00	204.21
819.00	211.27
820.00	210.26
821.00	204.00
822.00	211.58
823.00	212.18
824.00	202.81
825.00	216.20
826.00	208.68
827.00	301.71
828.00	253.75
829.00	224.39
830.00	217.65
831.00	207.96
832.00	210.26
833.00	209.42
834.00	193.93
835.00	206.97
836.00	203.70
837.00	202.56
838.00	202.01
839.00	212.99
840.00	211.10
841.00	275.86
842.00	317.58
843.00	498.35
844.00	355.17
845.00	271.03
846.00	239.44
847.00	213.04
848.00	206.99
849.00	207.14
850.00	209.39
851.00	202.56
852.00	215.39
853.00	283.58
854.00	226.19
855.00	212.31
856.00	222.52
857.00	207.25
858.00	209.73
859.00	200.98
860.00	205.27
861.00	212.51
862.00	210.05
863.00	207.22
864.00	209.77
865.00	208.21
866.00	206.50
867.00	215.46
868.00	213.01
869.00	212.07
870.00	206.67
871.00	198.65
872.00	207.82
873.00	204.41
874.00	207.65
875.00	204.13
876.00	207.13
877.00	204.72
878.00	205.58
879.00	205.80
880.00	205.86
881.00	207.55
882.00	205.29
883.00	201.71
884.00	205.00
885.00	203.33
886.00	203.94
887.00	206.36
888.00	206.66
889.00	204.71
890.00	207.06
891.00	208.06
892.00	204.94
893.00	203.56
894.00	198.92
895.00	203.86
896.00	204.08
897.00	204.08
898.00	203.64
899.00	204.80
900.00	203.58
901.00	202.00
902.00	206.00
903.00	209.99
904.00	201.83
905.00	202.87
906.00	207.52
907.00	207.04
908.00	207.55
909.00	206.29
910.00	207.26
911.00	207.01
912.00	221.18
913.00	344.80
914.00	285.93
915.00	251.28
916.00	231.77
917.00	218.27
918.00	207.56
919.00	203.07
920.00	201.92
921.00	210.32
922.00	210.80
923.00	227.83
924.00	222.69
925.00	215.00
926.00	211.00
927.00	209.56
928.00	205.67
929.00	205.03
930.00	207.21
931.00	201.14
932.00	199.32
933.00	202.03
934.00	202.10
935.00	198.50
936.00	199.93
937.00	201.21
938.00	201.42
939.00	204.33
940.00	204.75
941.00	204.09
942.00	209.02
943.00	203.51
944.00	200.16
945.00	208.82
946.00	207.35
947.00	201.15
948.00	198.53
949.00	200.06
950.00	204.22
951.00	203.85
952.00	201.03
953.00	205.76
954.00	206.02
955.00	204.66
956.00	205.90
957.00	203.92
958.00	205.46
959.00	199.99
960.00	205.29
961.00	199.48
962.00	205.29
963.00	202.05
964.00	204.70
965.00	203.31
966.00	202.79
967.00	212.41
968.00	212.00
969.00	204.89
970.00	205.54
971.00	204.66
972.00	202.96
973.00	205.58
974.00	206.46
975.00	204.33
976.00	203.46
977.00	201.00
978.00	201.75
979.00	207.13
980.00	206.42
981.00	203.98
982.00	197.46
983.00	206.74
984.00	205.07
985.00	205.62
986.00	205.46
987.00	205.49
988.00	207.18
989.00	209.37
990.00	205.15
991.00	201.11
992.00	202.85
993.00	207.06
994.00	205.13
995.00	208.49
996.00	202.08
997.00	202.21
998.00	206.72
999.00	205.20
1000.00	201.01
>>>>>End Processed Spectral Data<<<<<
