SpectraSuite Data File
++++++++++++++++++++++++++++++++++++
Date: Tue Oct 18 15:12:05 CDT 2011
User: Helimak
Dark Spectrum Present: No
Reference Spectrum Present: No
Number of Sampled Component Spectra: 1
Spectrometers: USB2G37154
Integration Time (usec): 200000 (USB2G37154)
Spectra Averaged: 1 (USB2G37154)
Boxcar Smoothing: 0 (USB2G37154)
Correct for Electrical Dark: No (USB2G37154)
Strobe/Lamp Enabled: No (USB2G37154)
Correct for Detector Non-linearity: No (USB2G37154)
Correct for Stray Light: No (USB2G37154)
Number of Pixels in Processed Spectrum: 651
>>>>>Begin Processed Spectral Data<<<<<
350.00	210.77
351.00	206.83
352.00	205.76
353.00	205.72
354.00	207.04
355.00	212.67
356.00	209.09
357.00	207.38
358.00	211.22
359.00	213.09
360.00	213.01
361.00	207.94
362.00	213.42
363.00	211.38
364.00	214.95
365.00	218.76
366.00	215.96
367.00	216.91
368.00	214.87
369.00	215.12
370.00	219.02
371.00	219.47
372.00	222.91
373.00	214.93
374.00	218.98
375.00	224.09
376.00	221.57
377.00	224.13
378.00	228.21
379.00	227.26
380.00	227.24
381.00	230.94
382.00	233.31
383.00	234.06
384.00	234.66
385.00	242.73
386.00	240.99
387.00	246.44
388.00	245.03
389.00	244.15
390.00	244.92
391.00	251.99
392.00	249.60
393.00	250.47
394.00	253.50
395.00	261.07
396.00	257.89
397.00	256.77
398.00	260.49
399.00	271.32
400.00	275.34
401.00	277.86
402.00	282.35
403.00	288.25
404.00	298.11
405.00	302.67
406.00	303.98
407.00	313.55
408.00	307.80
409.00	305.81
410.00	309.38
411.00	312.25
412.00	311.35
413.00	308.66
414.00	314.44
415.00	315.69
416.00	323.18
417.00	325.05
418.00	332.73
419.00	333.80
420.00	335.32
421.00	348.58
422.00	350.97
423.00	363.15
424.00	366.70
425.00	377.13
426.00	393.84
427.00	399.77
428.00	409.63
429.00	409.38
430.00	416.10
431.00	420.20
432.00	428.42
433.00	429.91
434.00	420.25
435.00	468.60
436.00	446.90
437.00	435.97
438.00	427.00
439.00	432.74
440.00	443.16
441.00	453.47
442.00	443.03
443.00	453.53
444.00	464.77
445.00	464.14
446.00	466.58
447.00	480.99
448.00	496.94
449.00	515.89
450.00	524.97
451.00	537.36
452.00	550.88
453.00	572.25
454.00	576.24
455.00	596.36
456.00	618.66
457.00	637.54
458.00	635.84
459.00	645.72
460.00	646.50
461.00	650.24
462.00	654.06
463.00	645.51
464.00	651.61
465.00	659.54
466.00	665.53
467.00	666.86
468.00	661.35
469.00	687.33
470.00	690.27
471.00	679.62
472.00	683.49
473.00	712.43
474.00	714.10
475.00	724.92
476.00	767.22
477.00	788.54
478.00	798.57
479.00	838.86
480.00	869.07
481.00	861.49
482.00	914.91
483.00	940.62
484.00	984.77
485.00	1034.97
486.00	1073.71
487.00	1116.57
488.00	1163.11
489.00	1185.44
490.00	1235.15
491.00	1280.71
492.00	1314.95
493.00	1337.98
494.00	1360.63
495.00	1372.92
496.00	1397.25
497.00	1405.44
498.00	1422.62
499.00	1422.03
500.00	1417.62
501.00	1434.28
502.00	1417.01
503.00	1433.45
504.00	1424.65
505.00	1441.65
506.00	1442.91
507.00	1459.37
508.00	1449.84
509.00	1452.66
510.00	1464.52
511.00	1486.04
512.00	1493.19
513.00	1510.56
514.00	1522.15
515.00	1555.70
516.00	1565.50
517.00	1598.91
518.00	1600.75
519.00	1628.72
520.00	1644.16
521.00	1703.08
522.00	1729.44
523.00	1788.28
524.00	1822.42
525.00	1833.45
526.00	1883.75
527.00	1941.76
528.00	1974.78
529.00	2034.40
530.00	2077.58
531.00	2108.01
532.00	2167.63
533.00	2186.00
534.00	2249.71
535.00	2268.62
536.00	2296.80
537.00	2320.01
538.00	2350.64
539.00	2371.31
540.00	2382.79
541.00	2443.73
542.00	2501.89
543.00	2511.76
544.00	2507.05
545.00	2493.42
546.00	2497.87
547.00	2430.15
548.00	2417.07
549.00	2419.86
550.00	2407.58
551.00	2401.00
552.00	2382.14
553.00	2411.71
554.00	2439.31
555.00	2428.91
556.00	2437.18
557.00	2450.48
558.00	2458.04
559.00	2469.54
560.00	2475.21
561.00	2511.97
562.00	2524.25
563.00	2528.66
564.00	2559.12
565.00	2606.56
566.00	2614.35
567.00	2659.97
568.00	2677.51
569.00	2707.40
570.00	2759.47
571.00	2791.57
572.00	2800.76
573.00	2822.08
574.00	2858.61
575.00	2871.77
576.00	2942.20
577.00	2934.24
578.00	2983.49
579.00	3020.28
580.00	3068.68
581.00	3073.30
582.00	3081.47
583.00	3123.27
584.00	3156.85
585.00	3135.31
586.00	3119.21
587.00	3113.81
588.00	3160.35
589.00	3127.84
590.00	3147.60
591.00	3134.55
592.00	3093.16
593.00	3126.00
594.00	3129.89
595.00	3106.78
596.00	3112.59
597.00	3086.46
598.00	3055.36
599.00	3051.49
600.00	3106.32
601.00	3057.02
602.00	3041.21
603.00	3054.31
604.00	3046.69
605.00	3071.80
606.00	3101.15
607.00	3077.57
608.00	3096.47
609.00	3051.31
610.00	3066.38
611.00	3189.71
612.00	3190.42
613.00	3159.03
614.00	3104.78
615.00	3100.61
616.00	3113.51
617.00	3148.92
618.00	3111.04
619.00	3184.75
620.00	3169.50
621.00	3178.01
622.00	3204.58
623.00	3205.99
624.00	3220.14
625.00	3276.63
626.00	3264.69
627.00	3254.73
628.00	3304.62
629.00	3358.30
630.00	3346.71
631.00	3400.17
632.00	3389.61
633.00	3367.57
634.00	3347.88
635.00	3353.08
636.00	3353.06
637.00	3349.86
638.00	3387.63
639.00	3352.18
640.00	3373.44
641.00	3346.49
642.00	3330.13
643.00	3321.05
644.00	3323.89
645.00	3289.04
646.00	3224.26
647.00	3215.19
648.00	3173.10
649.00	3155.82
650.00	3207.49
651.00	3165.35
652.00	3136.29
653.00	3138.15
654.00	3122.99
655.00	3078.25
656.00	3041.03
657.00	3037.80
658.00	3035.92
659.00	3009.04
660.00	2998.38
661.00	2989.34
662.00	2946.71
663.00	2936.59
664.00	2912.78
665.00	2910.82
666.00	2917.07
667.00	2916.80
668.00	2858.55
669.00	2845.67
670.00	2843.57
671.00	2807.93
672.00	2802.38
673.00	2796.06
674.00	2858.06
675.00	2815.17
676.00	2814.98
677.00	2799.33
678.00	2780.60
679.00	2791.54
680.00	2787.83
681.00	2795.35
682.00	2811.67
683.00	2807.40
684.00	2816.20
685.00	2795.81
686.00	2811.94
687.00	2837.25
688.00	2837.22
689.00	2833.76
690.00	2818.24
691.00	2844.33
692.00	2825.01
693.00	2831.93
694.00	2839.72
695.00	2844.62
696.00	2818.00
697.00	2836.25
698.00	2830.94
699.00	2848.79
700.00	2839.28
701.00	2902.27
702.00	2904.44
703.00	2887.00
704.00	2877.58
705.00	2881.90
706.00	2839.56
707.00	2841.04
708.00	2829.43
709.00	2819.92
710.00	2821.56
711.00	2776.15
712.00	2771.54
713.00	2700.36
714.00	2734.07
715.00	2701.89
716.00	2676.84
717.00	2624.81
718.00	2629.80
719.00	2601.22
720.00	2593.47
721.00	2527.38
722.00	2500.33
723.00	2474.77
724.00	2478.26
725.00	2462.90
726.00	2418.24
727.00	2352.06
728.00	2343.80
729.00	2346.30
730.00	2342.52
731.00	2333.85
732.00	2316.59
733.00	2334.64
734.00	2294.92
735.00	2305.29
736.00	2246.37
737.00	2244.14
738.00	2235.03
739.00	2223.11
740.00	2236.43
741.00	2186.08
742.00	2156.78
743.00	2133.52
744.00	2129.64
745.00	2146.16
746.00	2083.81
747.00	2082.80
748.00	2057.25
749.00	2045.72
750.00	1992.44
751.00	2038.94
752.00	2000.56
753.00	2032.52
754.00	1998.30
755.00	1971.12
756.00	1979.76
757.00	1964.38
758.00	1971.76
759.00	1964.16
760.00	1944.47
761.00	1934.08
762.00	1951.00
763.00	1883.66
764.00	1902.00
765.00	1878.36
766.00	1912.15
767.00	1879.53
768.00	1864.43
769.00	1902.84
770.00	1864.55
771.00	1906.87
772.00	1875.08
773.00	1858.69
774.00	1818.18
775.00	1785.16
776.00	1795.09
777.00	1785.10
778.00	1763.13
779.00	1779.33
780.00	1741.30
781.00	1714.97
782.00	1742.66
783.00	1756.22
784.00	1749.15
785.00	1740.48
786.00	1775.65
787.00	1801.88
788.00	1776.27
789.00	1798.99
790.00	1779.88
791.00	1828.92
792.00	1845.25
793.00	1859.83
794.00	1858.89
795.00	1852.21
796.00	1874.11
797.00	1866.88
798.00	1891.94
799.00	1858.72
800.00	1879.35
801.00	1870.57
802.00	1858.19
803.00	1868.50
804.00	1829.99
805.00	1818.06
806.00	1825.95
807.00	1817.67
808.00	1796.04
809.00	1807.19
810.00	1796.33
811.00	1783.57
812.00	1769.52
813.00	1764.77
814.00	1706.95
815.00	1682.55
816.00	1684.85
817.00	1639.08
818.00	1615.47
819.00	1623.63
820.00	1599.96
821.00	1606.56
822.00	1589.73
823.00	1576.72
824.00	1562.78
825.00	1567.31
826.00	1537.36
827.00	1488.12
828.00	1458.59
829.00	1458.02
830.00	1428.13
831.00	1396.10
832.00	1393.53
833.00	1409.42
834.00	1374.68
835.00	1368.95
836.00	1342.44
837.00	1344.33
838.00	1324.27
839.00	1305.30
840.00	1284.72
841.00	1285.21
842.00	1266.77
843.00	1260.26
844.00	1237.73
845.00	1249.95
846.00	1229.16
847.00	1186.90
848.00	1197.96
849.00	1194.97
850.00	1172.72
851.00	1140.19
852.00	1119.72
853.00	1126.60
854.00	1131.53
855.00	1097.76
856.00	1099.45
857.00	1086.76
858.00	1055.63
859.00	1065.86
860.00	1046.24
861.00	1046.57
862.00	1039.41
863.00	1031.77
864.00	1025.46
865.00	1012.02
866.00	1014.06
867.00	1008.61
868.00	967.08
869.00	942.59
870.00	957.39
871.00	956.14
872.00	956.90
873.00	932.81
874.00	899.94
875.00	880.29
876.00	888.44
877.00	894.97
878.00	864.93
879.00	846.08
880.00	833.25
881.00	848.89
882.00	838.91
883.00	817.60
884.00	827.98
885.00	813.07
886.00	799.21
887.00	792.21
888.00	784.48
889.00	775.74
890.00	789.37
891.00	797.53
892.00	775.35
893.00	777.53
894.00	776.65
895.00	777.35
896.00	776.54
897.00	764.37
898.00	776.67
899.00	760.50
900.00	778.24
901.00	777.81
902.00	763.96
903.00	778.03
904.00	765.33
905.00	752.60
906.00	764.38
907.00	763.37
908.00	769.38
909.00	762.99
910.00	743.12
911.00	756.03
912.00	757.95
913.00	770.74
914.00	754.18
915.00	741.45
916.00	729.04
917.00	724.64
918.00	731.84
919.00	725.42
920.00	701.15
921.00	703.79
922.00	707.21
923.00	701.04
924.00	684.38
925.00	660.69
926.00	634.99
927.00	615.59
928.00	609.66
929.00	600.41
930.00	592.09
931.00	573.46
932.00	565.92
933.00	553.54
934.00	530.42
935.00	519.27
936.00	498.48
937.00	465.11
938.00	438.14
939.00	423.08
940.00	392.64
941.00	367.64
942.00	358.02
943.00	352.56
944.00	340.29
945.00	328.74
946.00	328.87
947.00	324.04
948.00	325.87
949.00	329.61
950.00	331.35
951.00	326.21
952.00	325.93
953.00	327.18
954.00	319.56
955.00	328.55
956.00	318.89
957.00	320.20
958.00	323.33
959.00	315.95
960.00	317.83
961.00	315.31
962.00	312.20
963.00	307.05
964.00	306.48
965.00	309.58
966.00	306.23
967.00	304.54
968.00	297.98
969.00	292.50
970.00	292.24
971.00	292.77
972.00	291.91
973.00	286.20
974.00	288.32
975.00	275.59
976.00	275.88
977.00	275.14
978.00	267.72
979.00	265.80
980.00	264.90
981.00	264.83
982.00	263.67
983.00	261.97
984.00	255.79
985.00	250.56
986.00	250.09
987.00	251.06
988.00	249.70
989.00	245.64
990.00	241.84
991.00	242.16
992.00	237.38
993.00	238.68
994.00	234.87
995.00	233.03
996.00	231.82
997.00	234.48
998.00	230.48
999.00	228.74
1000.00	223.23
>>>>>End Processed Spectral Data<<<<<
