SpectraSuite Data File
++++++++++++++++++++++++++++++++++++
Date: Tue Oct 18 14:45:27 CDT 2011
User: Helimak
Dark Spectrum Present: No
Reference Spectrum Present: No
Number of Sampled Component Spectra: 1
Spectrometers: USB2G37154
Integration Time (usec): 200000 (USB2G37154)
Spectra Averaged: 1 (USB2G37154)
Boxcar Smoothing: 0 (USB2G37154)
Correct for Electrical Dark: No (USB2G37154)
Strobe/Lamp Enabled: No (USB2G37154)
Correct for Detector Non-linearity: No (USB2G37154)
Correct for Stray Light: No (USB2G37154)
Number of Pixels in Processed Spectrum: 651
>>>>>Begin Processed Spectral Data<<<<<
350.00	202.05
351.00	204.48
352.00	205.75
353.00	201.80
354.00	200.15
355.00	206.55
356.00	202.51
357.00	201.37
358.00	208.52
359.00	203.24
360.00	202.95
361.00	205.39
362.00	209.01
363.00	208.07
364.00	208.71
365.00	205.67
366.00	206.41
367.00	206.02
368.00	205.88
369.00	209.55
370.00	211.04
371.00	208.99
372.00	210.46
373.00	211.94
374.00	207.67
375.00	213.50
376.00	210.94
377.00	210.57
378.00	218.71
379.00	219.22
380.00	215.18
381.00	219.19
382.00	219.38
383.00	221.85
384.00	227.57
385.00	229.05
386.00	226.93
387.00	229.54
388.00	222.95
389.00	218.08
390.00	217.98
391.00	220.28
392.00	225.76
393.00	226.21
394.00	226.68
395.00	220.02
396.00	217.09
397.00	222.18
398.00	218.65
399.00	226.46
400.00	240.83
401.00	253.35
402.00	250.98
403.00	256.14
404.00	260.31
405.00	243.58
406.00	260.03
407.00	261.71
408.00	239.54
409.00	242.43
410.00	249.61
411.00	229.47
412.00	232.57
413.00	233.23
414.00	231.21
415.00	280.29
416.00	265.20
417.00	247.17
418.00	272.00
419.00	352.00
420.00	304.52
421.00	248.00
422.00	263.06
423.00	251.86
424.00	248.77
425.00	319.13
426.00	369.55
427.00	356.62
428.00	290.46
429.00	285.73
430.00	274.91
431.00	260.08
432.00	292.78
433.00	340.36
434.00	623.72
435.00	419.50
436.00	310.25
437.00	303.04
438.00	270.79
439.00	311.18
440.00	290.03
441.00	285.07
442.00	431.08
443.00	326.05
444.00	255.44
445.00	242.01
446.00	236.96
447.00	261.65
448.00	253.46
449.00	248.98
450.00	257.86
451.00	263.83
452.00	258.58
453.00	266.95
454.00	317.27
455.00	284.37
456.00	277.22
457.00	301.09
458.00	374.94
459.00	325.88
460.00	428.76
461.00	346.07
462.00	277.49
463.00	256.39
464.00	248.80
465.00	290.65
466.00	268.33
467.00	252.31
468.00	252.82
469.00	252.37
470.00	255.78
471.00	255.47
472.00	305.76
473.00	320.33
474.00	267.24
475.00	257.74
476.00	320.53
477.00	269.74
478.00	249.41
479.00	257.43
480.00	490.87
481.00	331.09
482.00	268.10
483.00	255.54
484.00	301.02
485.00	317.42
486.00	327.42
487.00	605.43
488.00	516.28
489.00	344.58
490.00	292.21
491.00	274.31
492.00	275.31
493.00	282.53
494.00	268.80
495.00	256.64
496.00	313.88
497.00	279.19
498.00	265.09
499.00	266.35
500.00	303.93
501.00	334.58
502.00	282.01
503.00	265.62
504.00	287.42
505.00	302.78
506.00	305.07
507.00	312.56
508.00	294.01
509.00	277.23
510.00	265.39
511.00	256.07
512.00	262.30
513.00	274.48
514.00	317.92
515.00	284.24
516.00	273.49
517.00	258.50
518.00	284.02
519.00	270.72
520.00	251.25
521.00	251.34
522.00	263.92
523.00	252.66
524.00	254.30
525.00	269.81
526.00	253.86
527.00	252.58
528.00	252.36
529.00	255.34
530.00	247.00
531.00	251.99
532.00	268.33
533.00	268.52
534.00	264.14
535.00	279.91
536.00	273.41
537.00	270.40
538.00	261.03
539.00	261.78
540.00	258.17
541.00	256.69
542.00	269.08
543.00	266.71
544.00	265.57
545.00	276.05
546.00	277.69
547.00	281.48
548.00	263.31
549.00	303.87
550.00	291.23
551.00	281.92
552.00	268.23
553.00	266.42
554.00	258.44
555.00	278.49
556.00	288.80
557.00	272.63
558.00	253.86
559.00	251.00
560.00	269.13
561.00	260.82
562.00	247.98
563.00	245.96
564.00	247.63
565.00	268.49
566.00	260.88
567.00	261.96
568.00	263.20
569.00	265.63
570.00	257.92
571.00	248.90
572.00	243.43
573.00	245.26
574.00	261.36
575.00	243.75
576.00	243.02
577.00	255.18
578.00	247.57
579.00	244.74
580.00	243.78
581.00	239.26
582.00	236.73
583.00	244.50
584.00	244.19
585.00	240.66
586.00	243.37
587.00	245.00
588.00	261.68
589.00	273.18
590.00	245.50
591.00	255.81
592.00	247.75
593.00	252.02
594.00	243.02
595.00	233.86
596.00	235.67
597.00	234.80
598.00	238.59
599.00	244.38
600.00	256.57
601.00	251.28
602.00	257.79
603.00	361.43
604.00	322.87
605.00	279.38
606.00	267.61
607.00	237.19
608.00	231.60
609.00	227.94
610.00	243.54
611.00	270.21
612.00	260.82
613.00	242.38
614.00	238.16
615.00	247.38
616.00	245.06
617.00	276.94
618.00	244.10
619.00	248.32
620.00	235.77
621.00	254.15
622.00	243.72
623.00	229.74
624.00	247.54
625.00	252.70
626.00	241.93
627.00	241.95
628.00	236.89
629.00	244.22
630.00	246.21
631.00	249.28
632.00	231.39
633.00	230.16
634.00	226.30
635.00	233.00
636.00	230.92
637.00	228.48
638.00	233.45
639.00	229.85
640.00	235.33
641.00	245.01
642.00	263.58
643.00	241.30
644.00	232.79
645.00	232.14
646.00	236.05
647.00	232.86
648.00	232.82
649.00	232.52
650.00	224.42
651.00	221.79
652.00	224.97
653.00	222.91
654.00	230.55
655.00	232.26
656.00	337.67
657.00	312.94
658.00	256.99
659.00	228.59
660.00	224.77
661.00	229.64
662.00	214.75
663.00	214.77
664.00	246.21
665.00	242.04
666.00	226.26
667.00	226.05
668.00	234.68
669.00	236.38
670.00	224.48
671.00	224.40
672.00	223.80
673.00	222.98
674.00	219.04
675.00	260.75
676.00	262.92
677.00	230.97
678.00	224.07
679.00	215.90
680.00	216.67
681.00	217.55
682.00	214.62
683.00	213.75
684.00	221.28
685.00	221.02
686.00	214.69
687.00	240.91
688.00	235.74
689.00	230.85
690.00	219.24
691.00	217.43
692.00	217.57
693.00	215.85
694.00	241.05
695.00	235.90
696.00	265.01
697.00	393.88
698.00	272.99
699.00	234.12
700.00	224.13
701.00	222.74
702.00	221.05
703.00	248.89
704.00	242.36
705.00	221.42
706.00	225.07
707.00	335.09
708.00	264.87
709.00	231.86
710.00	214.31
711.00	220.98
712.00	213.84
713.00	212.41
714.00	211.03
715.00	231.20
716.00	225.40
717.00	217.31
718.00	214.54
719.00	209.97
720.00	212.02
721.00	219.97
722.00	216.83
723.00	216.76
724.00	218.97
725.00	234.82
726.00	215.04
727.00	225.71
728.00	246.74
729.00	220.84
730.00	214.33
731.00	221.49
732.00	212.48
733.00	211.01
734.00	212.91
735.00	223.51
736.00	230.45
737.00	244.28
738.00	292.01
739.00	372.36
740.00	262.13
741.00	227.82
742.00	218.95
743.00	219.07
744.00	223.02
745.00	225.68
746.00	210.77
747.00	217.02
748.00	209.35
749.00	217.97
750.00	276.79
751.00	650.25
752.00	539.47
753.00	324.42
754.00	237.92
755.00	213.54
756.00	211.80
757.00	213.71
758.00	215.83
759.00	216.62
760.00	208.50
761.00	210.71
762.00	214.66
763.00	246.36
764.00	1045.02
765.00	542.15
766.00	322.71
767.00	230.32
768.00	208.32
769.00	205.75
770.00	205.39
771.00	202.90
772.00	222.15
773.00	390.22
774.00	274.43
775.00	236.23
776.00	208.59
777.00	220.88
778.00	302.02
779.00	246.22
780.00	219.25
781.00	207.02
782.00	206.94
783.00	204.54
784.00	205.25
785.00	209.89
786.00	213.21
787.00	209.86
788.00	221.10
789.00	215.97
790.00	221.73
791.00	216.07
792.00	208.57
793.00	213.68
794.00	211.44
795.00	329.97
796.00	339.02
797.00	250.92
798.00	225.75
799.00	213.43
800.00	211.52
801.00	318.72
802.00	467.37
803.00	330.63
804.00	246.69
805.00	222.68
806.00	215.45
807.00	207.88
808.00	210.31
809.00	214.05
810.00	228.25
811.00	445.90
812.00	2065.46
813.00	1217.23
814.00	527.75
815.00	323.76
816.00	218.04
817.00	213.93
818.00	208.17
819.00	211.59
820.00	209.02
821.00	207.97
822.00	205.99
823.00	205.27
824.00	209.95
825.00	214.83
826.00	209.87
827.00	286.03
828.00	246.67
829.00	219.62
830.00	213.60
831.00	209.42
832.00	206.91
833.00	209.20
834.00	206.47
835.00	206.88
836.00	204.67
837.00	205.33
838.00	206.30
839.00	208.01
840.00	207.95
841.00	271.07
842.00	300.49
843.00	464.82
844.00	339.96
845.00	260.43
846.00	233.01
847.00	212.80
848.00	206.84
849.00	202.77
850.00	208.93
851.00	202.45
852.00	216.08
853.00	269.76
854.00	227.37
855.00	210.29
856.00	216.10
857.00	202.14
858.00	204.98
859.00	205.34
860.00	206.18
861.00	207.02
862.00	209.21
863.00	207.26
864.00	208.92
865.00	208.18
866.00	210.02
867.00	212.36
868.00	212.96
869.00	208.61
870.00	206.47
871.00	206.70
872.00	204.29
873.00	203.97
874.00	205.59
875.00	204.22
876.00	205.18
877.00	205.65
878.00	203.61
879.00	204.69
880.00	204.80
881.00	208.52
882.00	203.96
883.00	206.32
884.00	205.00
885.00	208.70
886.00	205.01
887.00	208.78
888.00	203.01
889.00	204.71
890.00	203.31
891.00	207.72
892.00	207.48
893.00	206.53
894.00	205.61
895.00	212.03
896.00	205.12
897.00	202.17
898.00	206.09
899.00	203.93
900.00	203.14
901.00	200.32
902.00	203.10
903.00	207.62
904.00	204.70
905.00	204.00
906.00	210.25
907.00	205.10
908.00	203.99
909.00	209.00
910.00	202.95
911.00	208.70
912.00	220.66
913.00	331.16
914.00	269.21
915.00	239.61
916.00	228.82
917.00	213.46
918.00	207.06
919.00	207.65
920.00	211.35
921.00	206.81
922.00	207.09
923.00	224.18
924.00	219.11
925.00	214.96
926.00	205.99
927.00	209.06
928.00	205.38
929.00	207.99
930.00	201.69
931.00	201.63
932.00	202.80
933.00	204.02
934.00	203.85
935.00	201.98
936.00	205.58
937.00	200.92
938.00	205.21
939.00	201.29
940.00	204.39
941.00	205.17
942.00	207.00
943.00	205.53
944.00	199.07
945.00	205.78
946.00	203.12
947.00	203.01
948.00	202.31
949.00	200.53
950.00	204.41
951.00	206.02
952.00	203.96
953.00	203.32
954.00	204.55
955.00	205.15
956.00	203.70
957.00	203.88
958.00	209.48
959.00	201.95
960.00	202.91
961.00	204.21
962.00	204.42
963.00	205.82
964.00	205.25
965.00	201.48
966.00	204.67
967.00	207.10
968.00	207.96
969.00	205.93
970.00	210.14
971.00	209.70
972.00	203.12
973.00	209.48
974.00	205.69
975.00	197.41
976.00	209.30
977.00	198.60
978.00	207.90
979.00	207.80
980.00	199.55
981.00	198.02
982.00	202.59
983.00	205.26
984.00	206.07
985.00	208.43
986.00	202.47
987.00	204.60
988.00	204.10
989.00	199.87
990.00	204.05
991.00	206.60
992.00	206.44
993.00	206.17
994.00	205.25
995.00	204.40
996.00	204.21
997.00	202.13
998.00	202.62
999.00	204.79
1000.00	203.85
>>>>>End Processed Spectral Data<<<<<
