SpectraSuite Data File
++++++++++++++++++++++++++++++++++++
Date: Tue Oct 18 14:51:56 CDT 2011
User: Helimak
Dark Spectrum Present: No
Reference Spectrum Present: No
Number of Sampled Component Spectra: 1
Spectrometers: USB2G37154
Integration Time (usec): 200000 (USB2G37154)
Spectra Averaged: 1 (USB2G37154)
Boxcar Smoothing: 0 (USB2G37154)
Correct for Electrical Dark: No (USB2G37154)
Strobe/Lamp Enabled: No (USB2G37154)
Correct for Detector Non-linearity: No (USB2G37154)
Correct for Stray Light: No (USB2G37154)
Number of Pixels in Processed Spectrum: 651
>>>>>Begin Processed Spectral Data<<<<<
350.00	203.47
351.00	205.75
352.00	205.77
353.00	204.95
354.00	201.86
355.00	205.03
356.00	208.01
357.00	204.27
358.00	206.45
359.00	202.34
360.00	210.13
361.00	204.41
362.00	207.85
363.00	202.37
364.00	205.96
365.00	206.39
366.00	203.74
367.00	203.01
368.00	210.29
369.00	212.02
370.00	209.00
371.00	205.80
372.00	209.10
373.00	209.81
374.00	209.48
375.00	212.66
376.00	209.95
377.00	207.86
378.00	215.90
379.00	213.32
380.00	222.26
381.00	216.63
382.00	219.12
383.00	221.95
384.00	223.13
385.00	223.56
386.00	226.95
387.00	227.42
388.00	221.01
389.00	217.33
390.00	216.35
391.00	224.60
392.00	222.76
393.00	227.17
394.00	226.19
395.00	221.76
396.00	221.95
397.00	220.10
398.00	216.01
399.00	222.54
400.00	235.71
401.00	247.28
402.00	251.00
403.00	255.65
404.00	257.00
405.00	243.59
406.00	255.01
407.00	261.52
408.00	238.33
409.00	244.09
410.00	244.07
411.00	230.68
412.00	233.08
413.00	231.88
414.00	233.64
415.00	273.80
416.00	265.27
417.00	245.85
418.00	265.76
419.00	343.48
420.00	297.38
421.00	249.32
422.00	266.64
423.00	254.61
424.00	253.56
425.00	315.44
426.00	348.95
427.00	347.92
428.00	287.01
429.00	281.08
430.00	265.85
431.00	259.49
432.00	289.45
433.00	334.75
434.00	579.62
435.00	401.58
436.00	305.31
437.00	291.94
438.00	266.24
439.00	306.00
440.00	287.39
441.00	280.67
442.00	424.45
443.00	315.38
444.00	256.48
445.00	234.01
446.00	237.31
447.00	250.75
448.00	254.02
449.00	249.13
450.00	263.74
451.00	264.82
452.00	262.86
453.00	265.38
454.00	313.49
455.00	289.38
456.00	280.03
457.00	308.58
458.00	364.89
459.00	317.43
460.00	429.15
461.00	340.29
462.00	280.67
463.00	257.92
464.00	253.25
465.00	290.74
466.00	271.66
467.00	247.20
468.00	256.20
469.00	258.47
470.00	253.42
471.00	263.18
472.00	300.60
473.00	316.19
474.00	270.40
475.00	261.46
476.00	315.15
477.00	271.48
478.00	251.94
479.00	261.76
480.00	464.26
481.00	322.99
482.00	273.70
483.00	263.76
484.00	290.87
485.00	320.94
486.00	338.35
487.00	573.80
488.00	508.42
489.00	348.60
490.00	291.77
491.00	276.95
492.00	275.33
493.00	283.93
494.00	266.33
495.00	270.62
496.00	314.63
497.00	278.31
498.00	264.23
499.00	266.88
500.00	306.55
501.00	327.91
502.00	263.04
503.00	265.65
504.00	285.62
505.00	307.97
506.00	321.78
507.00	309.59
508.00	299.88
509.00	287.84
510.00	269.21
511.00	266.02
512.00	262.09
513.00	271.37
514.00	313.82
515.00	281.17
516.00	272.62
517.00	265.00
518.00	283.05
519.00	272.85
520.00	249.62
521.00	259.46
522.00	264.33
523.00	254.30
524.00	257.28
525.00	267.63
526.00	262.72
527.00	252.21
528.00	259.00
529.00	246.53
530.00	248.96
531.00	261.28
532.00	262.80
533.00	274.24
534.00	274.10
535.00	280.19
536.00	277.94
537.00	274.14
538.00	265.92
539.00	267.48
540.00	263.52
541.00	264.66
542.00	272.99
543.00	265.43
544.00	272.86
545.00	282.28
546.00	273.46
547.00	281.52
548.00	266.81
549.00	304.79
550.00	304.88
551.00	282.95
552.00	276.13
553.00	267.06
554.00	265.05
555.00	284.43
556.00	291.59
557.00	268.49
558.00	254.60
559.00	255.95
560.00	272.89
561.00	264.44
562.00	253.87
563.00	245.27
564.00	251.98
565.00	268.87
566.00	263.88
567.00	266.35
568.00	269.07
569.00	265.76
570.00	268.73
571.00	262.93
572.00	250.22
573.00	253.18
574.00	264.95
575.00	247.70
576.00	244.99
577.00	251.93
578.00	247.77
579.00	242.86
580.00	251.38
581.00	240.84
582.00	240.78
583.00	243.37
584.00	246.95
585.00	243.89
586.00	250.13
587.00	250.93
588.00	259.40
589.00	277.11
590.00	254.36
591.00	261.51
592.00	243.59
593.00	251.49
594.00	241.02
595.00	239.72
596.00	235.79
597.00	239.42
598.00	241.47
599.00	252.35
600.00	247.79
601.00	258.96
602.00	257.56
603.00	354.99
604.00	321.80
605.00	280.31
606.00	265.44
607.00	236.80
608.00	235.66
609.00	233.91
610.00	252.23
611.00	272.79
612.00	255.66
613.00	247.56
614.00	242.83
615.00	247.24
616.00	245.71
617.00	274.96
618.00	245.50
619.00	252.58
620.00	234.45
621.00	253.90
622.00	242.33
623.00	231.09
624.00	246.75
625.00	252.00
626.00	246.97
627.00	239.96
628.00	242.67
629.00	247.14
630.00	245.49
631.00	251.25
632.00	233.17
633.00	231.20
634.00	226.13
635.00	227.96
636.00	230.68
637.00	232.17
638.00	231.52
639.00	228.17
640.00	239.50
641.00	249.00
642.00	267.69
643.00	243.58
644.00	235.71
645.00	231.04
646.00	239.09
647.00	231.59
648.00	236.21
649.00	230.32
650.00	226.28
651.00	225.01
652.00	224.00
653.00	227.12
654.00	234.46
655.00	230.60
656.00	350.35
657.00	319.81
658.00	254.99
659.00	228.98
660.00	225.80
661.00	221.70
662.00	220.15
663.00	217.06
664.00	241.79
665.00	240.43
666.00	221.84
667.00	225.98
668.00	236.87
669.00	231.75
670.00	225.56
671.00	216.33
672.00	224.08
673.00	222.00
674.00	226.03
675.00	247.73
676.00	260.65
677.00	228.45
678.00	217.01
679.00	216.88
680.00	217.48
681.00	220.15
682.00	222.81
683.00	211.43
684.00	224.22
685.00	218.07
686.00	212.75
687.00	239.84
688.00	239.70
689.00	234.84
690.00	218.16
691.00	216.09
692.00	221.40
693.00	220.49
694.00	241.10
695.00	228.93
696.00	260.01
697.00	397.90
698.00	273.94
699.00	234.09
700.00	223.11
701.00	223.85
702.00	219.59
703.00	247.86
704.00	245.66
705.00	229.21
706.00	224.55
707.00	329.27
708.00	254.85
709.00	228.50
710.00	215.97
711.00	220.50
712.00	214.66
713.00	217.89
714.00	215.98
715.00	228.83
716.00	221.37
717.00	217.97
718.00	212.33
719.00	207.97
720.00	212.84
721.00	212.70
722.00	215.99
723.00	217.34
724.00	220.78
725.00	228.11
726.00	214.51
727.00	227.30
728.00	242.50
729.00	228.69
730.00	217.55
731.00	216.07
732.00	215.60
733.00	211.81
734.00	214.06
735.00	219.95
736.00	229.30
737.00	242.95
738.00	292.47
739.00	368.35
740.00	258.50
741.00	223.25
742.00	215.03
743.00	212.04
744.00	221.81
745.00	225.71
746.00	207.45
747.00	211.03
748.00	212.21
749.00	217.21
750.00	273.19
751.00	642.06
752.00	528.33
753.00	320.56
754.00	239.98
755.00	214.98
756.00	211.86
757.00	208.22
758.00	213.99
759.00	215.55
760.00	213.46
761.00	209.52
762.00	215.92
763.00	241.70
764.00	1020.17
765.00	542.46
766.00	314.76
767.00	231.38
768.00	213.14
769.00	207.06
770.00	206.24
771.00	209.80
772.00	220.11
773.00	385.34
774.00	273.49
775.00	235.59
776.00	207.29
777.00	221.61
778.00	305.00
779.00	247.75
780.00	220.43
781.00	207.96
782.00	203.87
783.00	203.03
784.00	209.12
785.00	210.67
786.00	209.43
787.00	214.89
788.00	212.07
789.00	223.93
790.00	218.90
791.00	215.11
792.00	211.18
793.00	211.14
794.00	215.32
795.00	333.83
796.00	335.53
797.00	251.41
798.00	226.31
799.00	211.50
800.00	212.31
801.00	318.28
802.00	464.44
803.00	329.12
804.00	249.62
805.00	219.97
806.00	217.78
807.00	212.92
808.00	212.49
809.00	213.50
810.00	222.83
811.00	443.05
812.00	1971.80
813.00	1198.22
814.00	527.43
815.00	325.06
816.00	220.45
817.00	215.37
818.00	203.68
819.00	213.40
820.00	201.80
821.00	207.05
822.00	206.74
823.00	202.21
824.00	204.28
825.00	215.19
826.00	208.40
827.00	284.00
828.00	248.12
829.00	216.68
830.00	214.11
831.00	211.28
832.00	205.73
833.00	203.77
834.00	206.01
835.00	207.98
836.00	207.16
837.00	206.01
838.00	207.57
839.00	210.07
840.00	206.36
841.00	260.96
842.00	304.72
843.00	454.38
844.00	334.14
845.00	256.61
846.00	235.05
847.00	212.77
848.00	199.66
849.00	205.31
850.00	206.07
851.00	207.61
852.00	220.25
853.00	264.47
854.00	222.27
855.00	217.10
856.00	213.45
857.00	204.45
858.00	212.10
859.00	205.21
860.00	205.93
861.00	211.32
862.00	205.84
863.00	213.66
864.00	207.84
865.00	203.38
866.00	204.53
867.00	211.44
868.00	216.04
869.00	204.66
870.00	204.36
871.00	209.82
872.00	205.94
873.00	207.36
874.00	203.90
875.00	205.07
876.00	205.94
877.00	205.69
878.00	206.63
879.00	205.74
880.00	204.03
881.00	205.75
882.00	207.64
883.00	206.13
884.00	205.00
885.00	206.42
886.00	199.93
887.00	204.42
888.00	208.12
889.00	204.97
890.00	208.89
891.00	208.01
892.00	203.44
893.00	204.50
894.00	204.82
895.00	207.79
896.00	205.76
897.00	201.36
898.00	205.14
899.00	201.88
900.00	204.07
901.00	205.77
902.00	203.34
903.00	206.79
904.00	202.71
905.00	204.10
906.00	204.74
907.00	204.58
908.00	205.47
909.00	203.74
910.00	206.00
911.00	206.38
912.00	220.61
913.00	326.03
914.00	271.10
915.00	238.22
916.00	228.89
917.00	213.74
918.00	199.67
919.00	206.50
920.00	206.63
921.00	210.90
922.00	206.45
923.00	221.71
924.00	217.71
925.00	212.62
926.00	210.01
927.00	208.52
928.00	201.20
929.00	208.00
930.00	205.95
931.00	202.44
932.00	200.76
933.00	202.15
934.00	202.80
935.00	203.33
936.00	203.93
937.00	205.89
938.00	200.20
939.00	202.89
940.00	203.76
941.00	200.65
942.00	203.93
943.00	203.34
944.00	206.62
945.00	209.71
946.00	201.41
947.00	196.92
948.00	206.14
949.00	207.50
950.00	201.92
951.00	205.12
952.00	199.00
953.00	203.42
954.00	201.89
955.00	204.60
956.00	208.21
957.00	208.06
958.00	201.63
959.00	204.97
960.00	203.77
961.00	205.49
962.00	203.96
963.00	200.84
964.00	206.45
965.00	203.35
966.00	204.39
967.00	207.45
968.00	208.04
969.00	209.53
970.00	207.51
971.00	206.65
972.00	203.47
973.00	204.27
974.00	201.90
975.00	203.89
976.00	206.78
977.00	202.72
978.00	205.62
979.00	200.97
980.00	202.17
981.00	200.66
982.00	205.22
983.00	205.74
984.00	203.86
985.00	204.94
986.00	203.16
987.00	204.32
988.00	205.30
989.00	206.75
990.00	205.30
991.00	206.15
992.00	200.51
993.00	205.80
994.00	201.22
995.00	201.91
996.00	207.37
997.00	207.02
998.00	205.20
999.00	205.02
1000.00	204.07
>>>>>End Processed Spectral Data<<<<<
