SpectraSuite Data File
++++++++++++++++++++++++++++++++++++
Date: Tue Oct 18 14:49:22 CDT 2011
User: Helimak
Dark Spectrum Present: No
Reference Spectrum Present: No
Number of Sampled Component Spectra: 1
Spectrometers: USB2G37154
Integration Time (usec): 200000 (USB2G37154)
Spectra Averaged: 1 (USB2G37154)
Boxcar Smoothing: 0 (USB2G37154)
Correct for Electrical Dark: No (USB2G37154)
Strobe/Lamp Enabled: No (USB2G37154)
Correct for Detector Non-linearity: No (USB2G37154)
Correct for Stray Light: No (USB2G37154)
Number of Pixels in Processed Spectrum: 651
>>>>>Begin Processed Spectral Data<<<<<
350.00	204.60
351.00	205.77
352.00	203.10
353.00	199.04
354.00	202.22
355.00	205.10
356.00	207.83
357.00	202.16
358.00	206.10
359.00	203.59
360.00	203.55
361.00	204.46
362.00	204.96
363.00	202.79
364.00	206.45
365.00	205.09
366.00	209.56
367.00	205.99
368.00	208.75
369.00	209.61
370.00	209.03
371.00	208.13
372.00	212.10
373.00	208.98
374.00	206.36
375.00	215.75
376.00	213.13
377.00	219.22
378.00	219.72
379.00	219.49
380.00	221.21
381.00	222.56
382.00	226.19
383.00	223.62
384.00	233.84
385.00	231.34
386.00	227.95
387.00	233.80
388.00	231.76
389.00	221.43
390.00	222.95
391.00	227.79
392.00	229.31
393.00	232.17
394.00	240.33
395.00	226.35
396.00	230.00
397.00	227.55
398.00	220.02
399.00	231.87
400.00	245.63
401.00	256.93
402.00	257.30
403.00	269.45
404.00	277.88
405.00	256.97
406.00	270.02
407.00	278.29
408.00	248.45
409.00	251.56
410.00	259.38
411.00	237.84
412.00	243.58
413.00	238.20
414.00	240.52
415.00	292.48
416.00	274.28
417.00	255.96
418.00	283.09
419.00	389.23
420.00	318.22
421.00	261.50
422.00	280.64
423.00	261.92
424.00	258.36
425.00	343.99
426.00	403.83
427.00	391.67
428.00	309.90
429.00	299.05
430.00	283.37
431.00	262.48
432.00	308.45
433.00	370.25
434.00	730.38
435.00	461.77
436.00	337.71
437.00	319.78
438.00	285.98
439.00	333.57
440.00	311.08
441.00	305.21
442.00	494.29
443.00	349.91
444.00	264.09
445.00	239.91
446.00	242.64
447.00	264.50
448.00	264.36
449.00	248.03
450.00	273.30
451.00	274.86
452.00	272.47
453.00	280.54
454.00	348.31
455.00	301.96
456.00	294.60
457.00	327.45
458.00	420.13
459.00	347.58
460.00	499.99
461.00	378.62
462.00	287.94
463.00	266.89
464.00	263.92
465.00	312.08
466.00	276.07
467.00	258.33
468.00	262.24
469.00	266.65
470.00	267.68
471.00	266.86
472.00	341.79
473.00	352.28
474.00	285.18
475.00	272.57
476.00	350.29
477.00	282.75
478.00	254.08
479.00	276.19
480.00	556.04
481.00	353.21
482.00	283.50
483.00	261.96
484.00	321.02
485.00	352.95
486.00	370.87
487.00	700.93
488.00	573.57
489.00	371.04
490.00	303.08
491.00	288.46
492.00	286.35
493.00	302.17
494.00	273.02
495.00	272.98
496.00	337.49
497.00	289.49
498.00	272.80
499.00	271.92
500.00	325.65
501.00	360.51
502.00	288.04
503.00	272.47
504.00	301.01
505.00	325.60
506.00	328.28
507.00	322.49
508.00	314.98
509.00	296.42
510.00	280.30
511.00	274.06
512.00	274.01
513.00	285.74
514.00	343.66
515.00	295.37
516.00	289.79
517.00	274.45
518.00	298.80
519.00	282.11
520.00	268.70
521.00	271.64
522.00	273.56
523.00	262.64
524.00	265.53
525.00	278.03
526.00	268.80
527.00	260.68
528.00	255.72
529.00	254.64
530.00	256.23
531.00	256.37
532.00	270.19
533.00	276.91
534.00	276.13
535.00	292.68
536.00	278.41
537.00	283.73
538.00	275.40
539.00	268.82
540.00	266.83
541.00	270.31
542.00	273.35
543.00	271.67
544.00	283.77
545.00	285.18
546.00	290.53
547.00	296.50
548.00	276.03
549.00	323.87
550.00	310.93
551.00	293.95
552.00	282.90
553.00	271.46
554.00	276.47
555.00	295.51
556.00	303.08
557.00	285.84
558.00	264.32
559.00	252.95
560.00	288.65
561.00	266.06
562.00	253.61
563.00	252.37
564.00	255.58
565.00	280.35
566.00	269.86
567.00	275.36
568.00	273.07
569.00	271.60
570.00	268.22
571.00	266.57
572.00	254.68
573.00	257.35
574.00	266.85
575.00	254.29
576.00	249.51
577.00	257.52
578.00	255.09
579.00	254.32
580.00	255.89
581.00	243.97
582.00	241.72
583.00	252.11
584.00	247.83
585.00	244.22
586.00	250.83
587.00	246.04
588.00	273.43
589.00	292.13
590.00	262.02
591.00	264.27
592.00	250.90
593.00	260.05
594.00	250.05
595.00	241.08
596.00	239.48
597.00	243.24
598.00	250.53
599.00	256.71
600.00	255.61
601.00	266.25
602.00	268.78
603.00	391.89
604.00	349.37
605.00	299.17
606.00	276.74
607.00	248.21
608.00	235.98
609.00	233.87
610.00	255.01
611.00	283.83
612.00	272.48
613.00	248.29
614.00	247.42
615.00	251.59
616.00	254.19
617.00	289.92
618.00	259.71
619.00	254.29
620.00	245.60
621.00	262.52
622.00	247.77
623.00	239.79
624.00	249.36
625.00	263.50
626.00	251.93
627.00	248.65
628.00	247.57
629.00	252.03
630.00	257.93
631.00	255.51
632.00	237.83
633.00	235.36
634.00	228.60
635.00	229.98
636.00	231.91
637.00	235.69
638.00	239.47
639.00	236.45
640.00	242.88
641.00	255.85
642.00	280.33
643.00	245.45
644.00	239.64
645.00	238.17
646.00	248.03
647.00	242.29
648.00	239.10
649.00	231.70
650.00	224.27
651.00	226.60
652.00	232.50
653.00	228.34
654.00	236.93
655.00	232.31
656.00	374.36
657.00	343.71
658.00	262.98
659.00	231.52
660.00	228.08
661.00	227.06
662.00	219.43
663.00	220.20
664.00	256.62
665.00	246.05
666.00	231.86
667.00	229.89
668.00	237.26
669.00	233.05
670.00	225.80
671.00	222.80
672.00	220.69
673.00	225.90
674.00	217.23
675.00	270.09
676.00	273.02
677.00	234.33
678.00	222.90
679.00	217.54
680.00	216.64
681.00	217.71
682.00	224.08
683.00	218.27
684.00	225.02
685.00	223.66
686.00	215.87
687.00	249.65
688.00	243.82
689.00	241.73
690.00	228.42
691.00	222.93
692.00	223.03
693.00	225.33
694.00	252.17
695.00	235.07
696.00	277.02
697.00	443.03
698.00	278.69
699.00	240.73
700.00	218.42
701.00	219.75
702.00	222.09
703.00	264.63
704.00	249.74
705.00	230.92
706.00	222.57
707.00	356.97
708.00	261.72
709.00	234.37
710.00	217.17
711.00	219.41
712.00	223.75
713.00	216.59
714.00	215.27
715.00	232.02
716.00	230.40
717.00	218.73
718.00	214.59
719.00	216.23
720.00	218.16
721.00	223.64
722.00	222.64
723.00	221.14
724.00	222.94
725.00	241.17
726.00	219.92
727.00	232.43
728.00	253.37
729.00	224.01
730.00	215.15
731.00	221.61
732.00	217.91
733.00	213.35
734.00	212.27
735.00	220.09
736.00	233.26
737.00	250.22
738.00	314.43
739.00	407.43
740.00	276.08
741.00	229.20
742.00	220.05
743.00	219.05
744.00	223.03
745.00	228.61
746.00	214.55
747.00	208.16
748.00	214.32
749.00	217.90
750.00	293.20
751.00	752.94
752.00	592.48
753.00	344.83
754.00	241.93
755.00	217.33
756.00	210.74
757.00	213.91
758.00	210.96
759.00	215.14
760.00	215.14
761.00	213.66
762.00	217.34
763.00	259.54
764.00	1186.88
765.00	608.30
766.00	340.15
767.00	236.85
768.00	213.81
769.00	208.53
770.00	210.08
771.00	211.77
772.00	226.68
773.00	414.74
774.00	278.70
775.00	235.69
776.00	210.72
777.00	221.20
778.00	325.02
779.00	252.13
780.00	223.07
781.00	208.84
782.00	210.23
783.00	209.41
784.00	209.22
785.00	213.96
786.00	210.29
787.00	213.55
788.00	213.11
789.00	221.02
790.00	225.83
791.00	218.37
792.00	213.79
793.00	208.07
794.00	213.13
795.00	353.61
796.00	370.53
797.00	259.55
798.00	233.42
799.00	213.07
800.00	211.32
801.00	341.64
802.00	524.38
803.00	351.12
804.00	251.78
805.00	221.51
806.00	213.09
807.00	210.93
808.00	215.20
809.00	217.44
810.00	230.70
811.00	497.32
812.00	2362.03
813.00	1361.77
814.00	567.34
815.00	338.38
816.00	224.39
817.00	219.55
818.00	211.50
819.00	211.59
820.00	208.13
821.00	205.04
822.00	203.22
823.00	209.78
824.00	206.02
825.00	212.72
826.00	213.02
827.00	309.28
828.00	255.56
829.00	223.29
830.00	214.13
831.00	207.05
832.00	209.14
833.00	204.92
834.00	205.10
835.00	204.82
836.00	210.22
837.00	205.78
838.00	206.97
839.00	204.11
840.00	210.64
841.00	282.87
842.00	317.82
843.00	504.52
844.00	351.52
845.00	270.73
846.00	238.62
847.00	210.99
848.00	205.53
849.00	207.66
850.00	205.99
851.00	203.48
852.00	216.87
853.00	282.71
854.00	225.43
855.00	215.44
856.00	218.03
857.00	209.59
858.00	208.82
859.00	206.16
860.00	204.55
861.00	211.68
862.00	210.20
863.00	207.51
864.00	207.69
865.00	208.02
866.00	207.89
867.00	215.93
868.00	220.04
869.00	213.87
870.00	207.38
871.00	204.38
872.00	204.21
873.00	203.35
874.00	202.31
875.00	200.72
876.00	207.92
877.00	207.09
878.00	203.60
879.00	201.81
880.00	206.02
881.00	204.23
882.00	200.83
883.00	208.81
884.00	204.01
885.00	205.52
886.00	204.65
887.00	204.36
888.00	202.12
889.00	204.68
890.00	207.35
891.00	206.22
892.00	204.99
893.00	204.92
894.00	203.15
895.00	205.76
896.00	204.70
897.00	205.74
898.00	203.98
899.00	205.57
900.00	207.80
901.00	204.30
902.00	205.19
903.00	210.89
904.00	204.35
905.00	205.18
906.00	209.29
907.00	211.75
908.00	202.57
909.00	207.87
910.00	206.21
911.00	210.01
912.00	223.25
913.00	351.26
914.00	281.84
915.00	247.48
916.00	227.82
917.00	210.99
918.00	205.67
919.00	206.20
920.00	204.98
921.00	209.80
922.00	206.86
923.00	226.66
924.00	219.32
925.00	214.29
926.00	210.01
927.00	210.63
928.00	207.64
929.00	206.81
930.00	207.39
931.00	202.18
932.00	201.60
933.00	203.79
934.00	205.18
935.00	203.65
936.00	204.46
937.00	200.70
938.00	203.91
939.00	204.61
940.00	202.41
941.00	209.25
942.00	204.96
943.00	204.46
944.00	204.10
945.00	206.42
946.00	203.77
947.00	205.13
948.00	203.49
949.00	204.84
950.00	203.76
951.00	205.15
952.00	205.97
953.00	205.48
954.00	205.93
955.00	209.40
956.00	206.42
957.00	202.17
958.00	208.22
959.00	202.00
960.00	204.84
961.00	202.08
962.00	203.00
963.00	205.67
964.00	209.54
965.00	204.74
966.00	207.27
967.00	212.66
968.00	206.96
969.00	206.13
970.00	203.57
971.00	206.95
972.00	203.34
973.00	210.69
974.00	207.07
975.00	204.83
976.00	207.37
977.00	200.82
978.00	205.10
979.00	206.93
980.00	201.39
981.00	204.02
982.00	202.35
983.00	208.67
984.00	202.98
985.00	205.70
986.00	201.34
987.00	204.16
988.00	205.00
989.00	200.88
990.00	207.58
991.00	206.12
992.00	203.83
993.00	204.39
994.00	204.54
995.00	201.17
996.00	205.45
997.00	205.24
998.00	205.07
999.00	207.96
1000.00	202.00
>>>>>End Processed Spectral Data<<<<<
