SpectraSuite Data File
++++++++++++++++++++++++++++++++++++
Date: Tue Oct 18 14:43:24 CDT 2011
User: Helimak
Dark Spectrum Present: No
Reference Spectrum Present: No
Number of Sampled Component Spectra: 1
Spectrometers: USB2G37154
Integration Time (usec): 200000 (USB2G37154)
Spectra Averaged: 1 (USB2G37154)
Boxcar Smoothing: 0 (USB2G37154)
Correct for Electrical Dark: No (USB2G37154)
Strobe/Lamp Enabled: No (USB2G37154)
Correct for Detector Non-linearity: No (USB2G37154)
Correct for Stray Light: No (USB2G37154)
Number of Pixels in Processed Spectrum: 651
>>>>>Begin Processed Spectral Data<<<<<
350.00	204.14
351.00	205.04
352.00	203.50
353.00	199.17
354.00	207.51
355.00	211.59
356.00	210.35
357.00	210.58
358.00	213.74
359.00	209.93
360.00	212.17
361.00	211.88
362.00	213.50
363.00	210.67
364.00	211.47
365.00	208.93
366.00	211.03
367.00	211.88
368.00	213.74
369.00	218.96
370.00	211.03
371.00	215.32
372.00	221.32
373.00	217.82
374.00	218.38
375.00	222.02
376.00	225.58
377.00	226.54
378.00	234.03
379.00	237.20
380.00	246.00
381.00	237.62
382.00	241.59
383.00	240.11
384.00	263.53
385.00	260.68
386.00	253.94
387.00	255.68
388.00	251.04
389.00	240.23
390.00	243.50
391.00	248.42
392.00	263.00
393.00	262.21
394.00	270.50
395.00	253.04
396.00	246.83
397.00	243.98
398.00	244.85
399.00	261.54
400.00	306.45
401.00	330.84
402.00	317.27
403.00	337.18
404.00	343.25
405.00	303.29
406.00	347.07
407.00	369.09
408.00	301.80
409.00	306.95
410.00	312.57
411.00	276.30
412.00	292.82
413.00	287.09
414.00	273.07
415.00	366.92
416.00	328.02
417.00	310.96
418.00	353.04
419.00	529.66
420.00	425.07
421.00	314.70
422.00	388.91
423.00	337.50
424.00	310.48
425.00	468.05
426.00	597.89
427.00	602.59
428.00	424.69
429.00	392.89
430.00	368.06
431.00	321.03
432.00	414.74
433.00	560.99
434.00	1556.11
435.00	896.92
436.00	535.94
437.00	473.28
438.00	380.34
439.00	518.86
440.00	452.98
441.00	436.81
442.00	958.42
443.00	573.38
444.00	354.92
445.00	285.92
446.00	281.51
447.00	334.02
448.00	331.58
449.00	304.14
450.00	319.19
451.00	325.03
452.00	320.61
453.00	348.51
454.00	507.76
455.00	398.22
456.00	372.72
457.00	469.06
458.00	679.00
459.00	536.31
460.00	918.01
461.00	631.54
462.00	397.12
463.00	331.11
464.00	307.24
465.00	442.57
466.00	362.53
467.00	312.27
468.00	306.01
469.00	307.16
470.00	310.42
471.00	315.90
472.00	492.20
473.00	562.86
474.00	376.76
475.00	339.82
476.00	534.64
477.00	362.37
478.00	302.55
479.00	332.38
480.00	1116.56
481.00	551.48
482.00	352.46
483.00	304.97
484.00	469.75
485.00	507.78
486.00	525.76
487.00	1423.05
488.00	1133.86
489.00	568.92
490.00	392.12
491.00	348.66
492.00	350.58
493.00	387.12
494.00	336.36
495.00	325.42
496.00	497.70
497.00	382.34
498.00	325.28
499.00	310.06
500.00	454.50
501.00	550.98
502.00	375.09
503.00	331.74
504.00	371.10
505.00	424.78
506.00	471.12
507.00	426.38
508.00	397.06
509.00	367.34
510.00	327.70
511.00	321.00
512.00	323.22
513.00	357.23
514.00	500.21
515.00	383.32
516.00	351.96
517.00	325.03
518.00	365.50
519.00	335.48
520.00	300.07
521.00	302.52
522.00	314.81
523.00	298.42
524.00	306.63
525.00	332.93
526.00	313.93
527.00	299.73
528.00	302.35
529.00	298.13
530.00	293.19
531.00	304.23
532.00	309.65
533.00	329.43
534.00	327.85
535.00	344.98
536.00	332.39
537.00	336.50
538.00	326.59
539.00	319.93
540.00	320.69
541.00	321.38
542.00	338.52
543.00	320.49
544.00	331.20
545.00	350.08
546.00	346.16
547.00	364.71
548.00	334.09
549.00	411.75
550.00	392.63
551.00	351.93
552.00	339.21
553.00	320.15
554.00	318.23
555.00	356.16
556.00	375.92
557.00	346.33
558.00	299.06
559.00	303.27
560.00	338.97
561.00	308.75
562.00	287.67
563.00	280.25
564.00	297.11
565.00	334.89
566.00	312.51
567.00	321.43
568.00	329.98
569.00	320.05
570.00	314.70
571.00	305.69
572.00	284.07
573.00	293.85
574.00	306.50
575.00	282.86
576.00	284.25
577.00	296.82
578.00	287.10
579.00	281.79
580.00	283.45
581.00	264.46
582.00	264.18
583.00	279.33
584.00	274.78
585.00	272.76
586.00	281.95
587.00	276.02
588.00	315.40
589.00	349.63
590.00	295.91
591.00	303.58
592.00	290.46
593.00	297.17
594.00	279.05
595.00	266.39
596.00	259.15
597.00	273.23
598.00	276.13
599.00	288.32
600.00	292.42
601.00	299.99
602.00	308.80
603.00	511.50
604.00	430.66
605.00	360.16
606.00	320.53
607.00	272.67
608.00	257.46
609.00	259.85
610.00	294.41
611.00	357.97
612.00	337.72
613.00	284.25
614.00	278.72
615.00	284.60
616.00	280.40
617.00	369.84
618.00	293.47
619.00	272.93
620.00	266.80
621.00	295.55
622.00	276.77
623.00	252.13
624.00	291.27
625.00	300.89
626.00	278.20
627.00	271.42
628.00	269.17
629.00	278.09
630.00	287.17
631.00	295.14
632.00	263.44
633.00	249.05
634.00	242.73
635.00	245.97
636.00	254.83
637.00	260.45
638.00	257.57
639.00	254.80
640.00	269.88
641.00	281.85
642.00	325.15
643.00	277.18
644.00	260.85
645.00	259.11
646.00	267.99
647.00	257.82
648.00	269.05
649.00	263.25
650.00	244.79
651.00	242.54
652.00	241.45
653.00	241.16
654.00	253.80
655.00	249.48
656.00	511.66
657.00	463.21
658.00	324.97
659.00	252.19
660.00	244.86
661.00	246.83
662.00	234.41
663.00	230.38
664.00	312.94
665.00	310.29
666.00	252.92
667.00	246.57
668.00	267.00
669.00	277.67
670.00	246.13
671.00	237.61
672.00	238.22
673.00	236.96
674.00	240.46
675.00	307.12
676.00	330.72
677.00	255.55
678.00	233.17
679.00	232.44
680.00	229.18
681.00	231.65
682.00	229.36
683.00	226.93
684.00	229.29
685.00	231.53
686.00	230.08
687.00	285.54
688.00	272.61
689.00	266.44
690.00	235.90
691.00	231.95
692.00	234.81
693.00	236.23
694.00	275.46
695.00	260.12
696.00	316.03
697.00	604.29
698.00	341.47
699.00	263.95
700.00	244.22
701.00	236.49
702.00	234.49
703.00	302.35
704.00	284.90
705.00	245.96
706.00	234.93
707.00	462.45
708.00	317.41
709.00	257.41
710.00	223.42
711.00	237.98
712.00	231.88
713.00	228.12
714.00	226.80
715.00	252.46
716.00	242.13
717.00	223.71
718.00	228.04
719.00	219.63
720.00	222.15
721.00	237.83
722.00	227.84
723.00	230.48
724.00	234.30
725.00	250.75
726.00	227.48
727.00	253.22
728.00	281.58
729.00	242.69
730.00	227.51
731.00	229.30
732.00	228.35
733.00	217.40
734.00	223.08
735.00	230.75
736.00	259.13
737.00	282.39
738.00	390.92
739.00	558.16
740.00	325.41
741.00	253.47
742.00	234.03
743.00	232.00
744.00	239.83
745.00	234.28
746.00	216.65
747.00	220.29
748.00	218.21
749.00	228.37
750.00	354.50
751.00	1189.28
752.00	888.70
753.00	458.68
754.00	271.87
755.00	226.88
756.00	214.27
757.00	219.87
758.00	220.05
759.00	226.63
760.00	223.83
761.00	224.97
762.00	225.28
763.00	289.98
764.00	1987.93
765.00	944.27
766.00	462.19
767.00	253.59
768.00	221.68
769.00	213.93
770.00	211.36
771.00	214.80
772.00	240.56
773.00	582.25
774.00	342.07
775.00	267.66
776.00	218.19
777.00	249.83
778.00	473.00
779.00	312.01
780.00	245.02
781.00	212.72
782.00	206.61
783.00	213.79
784.00	211.36
785.00	216.10
786.00	222.43
787.00	221.76
788.00	219.05
789.00	226.00
790.00	237.79
791.00	225.47
792.00	224.91
793.00	222.13
794.00	221.21
795.00	466.03
796.00	489.16
797.00	299.65
798.00	252.01
799.00	222.55
800.00	220.48
801.00	440.27
802.00	766.18
803.00	467.77
804.00	299.96
805.00	238.06
806.00	226.38
807.00	215.85
808.00	223.85
809.00	221.27
810.00	246.38
811.00	712.17
812.00	3653.49
813.00	2233.20
814.00	847.77
815.00	443.84
816.00	235.54
817.00	223.94
818.00	213.85
819.00	212.16
820.00	213.79
821.00	212.02
822.00	214.07
823.00	211.55
824.00	210.50
825.00	215.50
826.00	214.42
827.00	377.97
828.00	299.29
829.00	242.00
830.00	220.67
831.00	210.33
832.00	211.61
833.00	208.74
834.00	212.61
835.00	209.75
836.00	209.35
837.00	213.90
838.00	209.81
839.00	207.87
840.00	214.61
841.00	332.51
842.00	404.98
843.00	767.56
844.00	490.34
845.00	325.88
846.00	270.33
847.00	222.36
848.00	213.70
849.00	211.14
850.00	206.34
851.00	210.97
852.00	222.33
853.00	332.79
854.00	243.63
855.00	224.04
856.00	223.20
857.00	207.74
858.00	207.13
859.00	205.02
860.00	206.67
861.00	212.70
862.00	209.24
863.00	210.22
864.00	212.03
865.00	208.52
866.00	205.94
867.00	221.13
868.00	220.05
869.00	213.26
870.00	209.15
871.00	206.79
872.00	204.76
873.00	210.24
874.00	200.53
875.00	208.24
876.00	206.83
877.00	211.34
878.00	205.25
879.00	205.25
880.00	212.00
881.00	206.25
882.00	204.69
883.00	206.38
884.00	202.00
885.00	206.76
886.00	205.77
887.00	209.25
888.00	202.15
889.00	207.49
890.00	203.76
891.00	209.25
892.00	203.50
893.00	205.25
894.00	204.69
895.00	206.69
896.00	205.11
897.00	203.51
898.00	205.87
899.00	205.92
900.00	204.68
901.00	203.69
902.00	206.02
903.00	212.40
904.00	208.98
905.00	205.01
906.00	210.74
907.00	205.87
908.00	207.06
909.00	205.33
910.00	208.63
911.00	211.45
912.00	234.64
913.00	448.12
914.00	342.11
915.00	286.94
916.00	251.80
917.00	226.19
918.00	206.29
919.00	206.21
920.00	207.46
921.00	206.94
922.00	209.63
923.00	238.38
924.00	235.04
925.00	222.68
926.00	215.97
927.00	215.50
928.00	205.19
929.00	206.80
930.00	207.89
931.00	201.36
932.00	204.21
933.00	200.79
934.00	209.19
935.00	202.25
936.00	205.89
937.00	205.05
938.00	200.38
939.00	207.44
940.00	203.58
941.00	210.06
942.00	206.14
943.00	205.77
944.00	207.08
945.00	211.39
946.00	204.11
947.00	205.14
948.00	203.43
949.00	200.56
950.00	206.55
951.00	203.95
952.00	199.95
953.00	203.96
954.00	202.17
955.00	202.82
956.00	200.84
957.00	201.94
958.00	207.74
959.00	208.94
960.00	203.21
961.00	204.49
962.00	207.83
963.00	207.78
964.00	208.07
965.00	206.97
966.00	204.10
967.00	213.00
968.00	213.02
969.00	210.25
970.00	206.60
971.00	206.28
972.00	204.63
973.00	206.69
974.00	202.29
975.00	203.16
976.00	206.92
977.00	204.40
978.00	204.30
979.00	205.02
980.00	205.56
981.00	205.29
982.00	202.51
983.00	208.59
984.00	202.41
985.00	209.25
986.00	200.94
987.00	202.05
988.00	204.41
989.00	205.26
990.00	203.30
991.00	203.17
992.00	198.38
993.00	206.14
994.00	203.49
995.00	206.52
996.00	202.43
997.00	208.17
998.00	203.30
999.00	204.23
1000.00	203.05
>>>>>End Processed Spectral Data<<<<<
