SpectraSuite Data File
++++++++++++++++++++++++++++++++++++
Date: Tue Oct 18 14:51:57 CDT 2011
User: Helimak
Dark Spectrum Present: No
Reference Spectrum Present: No
Number of Sampled Component Spectra: 1
Spectrometers: USB2G37154
Integration Time (usec): 200000 (USB2G37154)
Spectra Averaged: 1 (USB2G37154)
Boxcar Smoothing: 0 (USB2G37154)
Correct for Electrical Dark: No (USB2G37154)
Strobe/Lamp Enabled: No (USB2G37154)
Correct for Detector Non-linearity: No (USB2G37154)
Correct for Stray Light: No (USB2G37154)
Number of Pixels in Processed Spectrum: 651
>>>>>Begin Processed Spectral Data<<<<<
350.00	200.69
351.00	202.02
352.00	203.51
353.00	200.25
354.00	202.08
355.00	203.72
356.00	206.47
357.00	209.50
358.00	208.61
359.00	206.10
360.00	201.49
361.00	208.82
362.00	209.78
363.00	210.24
364.00	207.05
365.00	205.90
366.00	208.38
367.00	207.00
368.00	207.30
369.00	206.15
370.00	206.99
371.00	205.66
372.00	212.18
373.00	206.58
374.00	206.95
375.00	213.27
376.00	212.57
377.00	210.21
378.00	216.60
379.00	217.45
380.00	217.58
381.00	214.18
382.00	219.31
383.00	222.97
384.00	222.98
385.00	223.74
386.00	224.96
387.00	226.27
388.00	221.93
389.00	214.78
390.00	221.73
391.00	225.48
392.00	222.30
393.00	223.21
394.00	228.93
395.00	225.35
396.00	227.91
397.00	218.28
398.00	217.60
399.00	229.91
400.00	235.60
401.00	247.90
402.00	251.93
403.00	257.80
404.00	261.85
405.00	244.02
406.00	256.00
407.00	255.65
408.00	242.93
409.00	244.77
410.00	249.79
411.00	234.30
412.00	235.98
413.00	234.98
414.00	230.16
415.00	280.35
416.00	260.57
417.00	246.25
418.00	272.15
419.00	347.59
420.00	300.64
421.00	252.87
422.00	258.99
423.00	252.72
424.00	248.18
425.00	317.91
426.00	358.54
427.00	355.72
428.00	286.85
429.00	283.94
430.00	279.44
431.00	254.17
432.00	289.14
433.00	331.09
434.00	594.43
435.00	407.29
436.00	306.90
437.00	299.05
438.00	265.62
439.00	308.52
440.00	288.79
441.00	288.49
442.00	416.51
443.00	316.18
444.00	256.46
445.00	235.08
446.00	240.81
447.00	254.25
448.00	249.12
449.00	245.99
450.00	264.07
451.00	266.38
452.00	259.23
453.00	263.42
454.00	309.44
455.00	285.67
456.00	280.57
457.00	296.34
458.00	370.41
459.00	327.55
460.00	420.67
461.00	341.26
462.00	280.25
463.00	260.86
464.00	251.89
465.00	294.89
466.00	269.68
467.00	252.08
468.00	251.90
469.00	253.05
470.00	260.05
471.00	258.58
472.00	305.42
473.00	318.05
474.00	269.53
475.00	258.73
476.00	314.34
477.00	271.55
478.00	250.17
479.00	261.53
480.00	468.71
481.00	322.33
482.00	267.05
483.00	262.94
484.00	300.25
485.00	327.45
486.00	342.55
487.00	574.24
488.00	502.63
489.00	347.68
490.00	290.58
491.00	274.92
492.00	278.88
493.00	286.98
494.00	267.37
495.00	269.88
496.00	313.89
497.00	281.56
498.00	266.46
499.00	260.62
500.00	305.28
501.00	323.52
502.00	278.01
503.00	268.88
504.00	289.42
505.00	306.98
506.00	310.40
507.00	309.61
508.00	301.45
509.00	284.96
510.00	272.80
511.00	269.05
512.00	266.75
513.00	265.76
514.00	316.91
515.00	283.61
516.00	277.39
517.00	261.99
518.00	281.55
519.00	272.78
520.00	253.28
521.00	254.86
522.00	265.55
523.00	253.41
524.00	258.58
525.00	273.19
526.00	265.01
527.00	256.10
528.00	258.64
529.00	250.73
530.00	254.21
531.00	257.30
532.00	260.86
533.00	267.90
534.00	273.00
535.00	277.24
536.00	273.66
537.00	273.92
538.00	269.18
539.00	263.89
540.00	264.78
541.00	261.35
542.00	267.96
543.00	263.99
544.00	269.11
545.00	283.85
546.00	280.68
547.00	285.57
548.00	271.41
549.00	307.19
550.00	295.03
551.00	279.02
552.00	265.70
553.00	263.30
554.00	263.23
555.00	282.28
556.00	291.61
557.00	276.41
558.00	256.02
559.00	250.33
560.00	273.82
561.00	261.33
562.00	248.25
563.00	245.93
564.00	259.65
565.00	268.72
566.00	266.26
567.00	271.51
568.00	270.05
569.00	269.34
570.00	268.12
571.00	261.08
572.00	243.37
573.00	255.49
574.00	261.86
575.00	249.32
576.00	246.55
577.00	249.11
578.00	246.02
579.00	243.06
580.00	247.10
581.00	241.94
582.00	242.19
583.00	243.80
584.00	246.85
585.00	241.16
586.00	243.54
587.00	251.26
588.00	265.05
589.00	271.64
590.00	252.57
591.00	253.36
592.00	253.96
593.00	253.98
594.00	246.04
595.00	239.42
596.00	235.42
597.00	241.81
598.00	240.61
599.00	247.46
600.00	251.16
601.00	252.10
602.00	265.04
603.00	358.73
604.00	322.68
605.00	284.42
606.00	263.76
607.00	243.80
608.00	236.52
609.00	237.97
610.00	251.88
611.00	270.33
612.00	264.63
613.00	239.38
614.00	242.07
615.00	245.76
616.00	246.60
617.00	273.90
618.00	251.16
619.00	250.78
620.00	241.72
621.00	253.71
622.00	243.07
623.00	230.39
624.00	243.16
625.00	257.69
626.00	242.07
627.00	238.78
628.00	244.12
629.00	245.71
630.00	245.18
631.00	251.03
632.00	237.54
633.00	232.02
634.00	229.12
635.00	234.04
636.00	234.90
637.00	226.43
638.00	230.33
639.00	234.21
640.00	237.87
641.00	247.17
642.00	264.44
643.00	242.12
644.00	233.80
645.00	229.09
646.00	236.09
647.00	235.68
648.00	239.94
649.00	234.29
650.00	228.84
651.00	224.24
652.00	226.20
653.00	225.08
654.00	231.52
655.00	229.96
656.00	346.49
657.00	314.06
658.00	255.99
659.00	230.28
660.00	228.47
661.00	228.70
662.00	215.37
663.00	216.29
664.00	248.76
665.00	244.10
666.00	229.39
667.00	225.92
668.00	236.19
669.00	236.32
670.00	223.50
671.00	217.44
672.00	226.91
673.00	223.99
674.00	221.06
675.00	259.65
676.00	264.00
677.00	229.01
678.00	220.45
679.00	215.54
680.00	219.73
681.00	219.00
682.00	222.82
683.00	217.66
684.00	224.66
685.00	219.76
686.00	214.70
687.00	241.84
688.00	242.25
689.00	231.03
690.00	217.68
691.00	222.37
692.00	216.60
693.00	217.96
694.00	243.48
695.00	229.91
696.00	256.01
697.00	389.49
698.00	274.88
699.00	237.27
700.00	222.76
701.00	223.24
702.00	225.12
703.00	254.17
704.00	245.66
705.00	227.62
706.00	221.42
707.00	327.90
708.00	257.90
709.00	228.98
710.00	212.26
711.00	216.30
712.00	214.26
713.00	214.84
714.00	212.43
715.00	232.26
716.00	224.04
717.00	218.54
718.00	216.49
719.00	212.27
720.00	220.39
721.00	222.16
722.00	219.94
723.00	219.37
724.00	218.28
725.00	237.33
726.00	214.22
727.00	232.75
728.00	251.11
729.00	222.77
730.00	213.90
731.00	217.28
732.00	217.20
733.00	211.37
734.00	214.19
735.00	219.95
736.00	230.90
737.00	240.90
738.00	294.35
739.00	363.15
740.00	262.52
741.00	226.17
742.00	217.13
743.00	213.96
744.00	219.35
745.00	221.51
746.00	210.62
747.00	215.77
748.00	212.16
749.00	214.47
750.00	271.16
751.00	646.70
752.00	525.09
753.00	323.01
754.00	240.31
755.00	215.49
756.00	209.24
757.00	214.93
758.00	216.94
759.00	218.06
760.00	209.99
761.00	213.19
762.00	215.98
763.00	249.55
764.00	1015.05
765.00	533.09
766.00	321.89
767.00	226.98
768.00	213.16
769.00	205.73
770.00	204.53
771.00	209.80
772.00	221.16
773.00	381.03
774.00	277.52
775.00	234.89
776.00	213.55
777.00	217.39
778.00	304.02
779.00	251.49
780.00	222.02
781.00	209.03
782.00	208.10
783.00	209.66
784.00	207.44
785.00	208.20
786.00	213.75
787.00	215.46
788.00	215.25
789.00	209.99
790.00	217.76
791.00	219.15
792.00	216.17
793.00	218.67
794.00	215.99
795.00	330.83
796.00	342.08
797.00	253.03
798.00	231.16
799.00	213.53
800.00	208.31
801.00	315.83
802.00	471.71
803.00	329.61
804.00	243.05
805.00	218.39
806.00	216.68
807.00	216.07
808.00	216.11
809.00	213.89
810.00	226.34
811.00	445.12
812.00	1985.56
813.00	1195.12
814.00	520.81
815.00	321.69
816.00	223.52
817.00	213.53
818.00	210.85
819.00	216.92
820.00	208.03
821.00	205.05
822.00	207.16
823.00	208.26
824.00	207.59
825.00	216.11
826.00	211.32
827.00	286.10
828.00	248.17
829.00	221.52
830.00	216.05
831.00	209.26
832.00	203.73
833.00	207.30
834.00	208.04
835.00	208.43
836.00	205.30
837.00	205.35
838.00	203.19
839.00	205.86
840.00	207.65
841.00	262.52
842.00	299.10
843.00	458.11
844.00	341.12
845.00	259.22
846.00	233.48
847.00	208.70
848.00	202.24
849.00	204.44
850.00	206.05
851.00	203.44
852.00	213.09
853.00	268.62
854.00	222.04
855.00	217.32
856.00	217.67
857.00	203.82
858.00	207.95
859.00	207.02
860.00	204.45
861.00	213.84
862.00	204.47
863.00	206.40
864.00	207.80
865.00	208.42
866.00	205.99
867.00	211.02
868.00	213.98
869.00	207.72
870.00	205.87
871.00	208.85
872.00	205.81
873.00	206.76
874.00	203.92
875.00	200.91
876.00	202.04
877.00	204.95
878.00	205.35
879.00	206.80
880.00	206.22
881.00	207.70
882.00	204.25
883.00	204.95
884.00	208.00
885.00	203.17
886.00	204.22
887.00	208.03
888.00	199.88
889.00	203.60
890.00	206.40
891.00	205.03
892.00	206.13
893.00	202.90
894.00	206.39
895.00	207.68
896.00	202.37
897.00	203.35
898.00	199.84
899.00	203.86
900.00	206.82
901.00	202.75
902.00	202.32
903.00	207.86
904.00	200.79
905.00	208.09
906.00	206.23
907.00	202.89
908.00	205.42
909.00	203.41
910.00	210.44
911.00	209.86
912.00	222.94
913.00	322.87
914.00	272.41
915.00	242.15
916.00	225.40
917.00	212.92
918.00	205.11
919.00	206.21
920.00	207.72
921.00	209.79
922.00	201.45
923.00	223.81
924.00	213.06
925.00	215.41
926.00	203.99
927.00	209.19
928.00	207.01
929.00	207.17
930.00	202.07
931.00	201.05
932.00	200.11
933.00	206.03
934.00	204.22
935.00	202.61
936.00	200.03
937.00	205.06
938.00	206.96
939.00	203.66
940.00	203.90
941.00	205.43
942.00	209.03
943.00	207.08
944.00	204.02
945.00	207.81
946.00	204.63
947.00	203.97
948.00	204.05
949.00	199.72
950.00	207.68
951.00	201.61
952.00	203.01
953.00	205.38
954.00	202.44
955.00	206.49
956.00	202.42
957.00	208.12
958.00	204.68
959.00	202.00
960.00	206.71
961.00	204.08
962.00	204.50
963.00	201.15
964.00	201.93
965.00	205.95
966.00	207.26
967.00	211.13
968.00	212.01
969.00	207.56
970.00	208.56
971.00	204.03
972.00	205.12
973.00	205.36
974.00	204.03
975.00	202.79
976.00	204.75
977.00	203.59
978.00	206.39
979.00	204.58
980.00	201.22
981.00	206.80
982.00	205.64
983.00	216.48
984.00	203.50
985.00	204.93
986.00	209.90
987.00	203.32
988.00	199.62
989.00	200.35
990.00	201.48
991.00	206.21
992.00	204.66
993.00	205.92
994.00	199.67
995.00	205.31
996.00	201.37
997.00	204.04
998.00	203.21
999.00	202.58
1000.00	200.08
>>>>>End Processed Spectral Data<<<<<
