SpectraSuite Data File
++++++++++++++++++++++++++++++++++++
Date: Tue Oct 18 14:47:32 CDT 2011
User: Helimak
Dark Spectrum Present: No
Reference Spectrum Present: No
Number of Sampled Component Spectra: 1
Spectrometers: USB2G37154
Integration Time (usec): 200000 (USB2G37154)
Spectra Averaged: 1 (USB2G37154)
Boxcar Smoothing: 0 (USB2G37154)
Correct for Electrical Dark: No (USB2G37154)
Strobe/Lamp Enabled: No (USB2G37154)
Correct for Detector Non-linearity: No (USB2G37154)
Correct for Stray Light: No (USB2G37154)
Number of Pixels in Processed Spectrum: 651
>>>>>Begin Processed Spectral Data<<<<<
350.00	198.03
351.00	204.09
352.00	200.19
353.00	203.01
354.00	208.08
355.00	207.08
356.00	208.11
357.00	206.93
358.00	213.35
359.00	206.88
360.00	210.43
361.00	206.72
362.00	208.44
363.00	206.01
364.00	208.61
365.00	207.05
366.00	205.58
367.00	207.13
368.00	206.60
369.00	211.31
370.00	210.03
371.00	214.01
372.00	221.70
373.00	214.77
374.00	215.98
375.00	215.09
376.00	220.79
377.00	224.72
378.00	230.50
379.00	228.33
380.00	232.35
381.00	229.54
382.00	237.99
383.00	238.41
384.00	244.09
385.00	249.12
386.00	245.00
387.00	249.30
388.00	237.78
389.00	234.71
390.00	235.97
391.00	241.69
392.00	249.25
393.00	254.88
394.00	257.58
395.00	235.90
396.00	240.00
397.00	233.56
398.00	236.76
399.00	247.46
400.00	276.60
401.00	300.86
402.00	298.05
403.00	317.09
404.00	322.10
405.00	289.43
406.00	322.04
407.00	333.52
408.00	285.45
409.00	286.41
410.00	294.59
411.00	263.94
412.00	278.16
413.00	269.27
414.00	262.48
415.00	351.53
416.00	313.64
417.00	286.12
418.00	336.88
419.00	510.64
420.00	403.85
421.00	297.08
422.00	353.11
423.00	313.65
424.00	285.24
425.00	441.21
426.00	542.32
427.00	544.82
428.00	387.84
429.00	363.39
430.00	335.78
431.00	301.95
432.00	380.22
433.00	497.02
434.00	1219.98
435.00	730.39
436.00	455.83
437.00	421.99
438.00	338.45
439.00	445.54
440.00	389.93
441.00	388.02
442.00	782.57
443.00	485.78
444.00	318.22
445.00	266.00
446.00	265.32
447.00	316.44
448.00	308.09
449.00	280.14
450.00	309.00
451.00	307.77
452.00	301.65
453.00	326.90
454.00	446.23
455.00	362.57
456.00	341.49
457.00	417.49
458.00	594.07
459.00	473.62
460.00	780.16
461.00	544.71
462.00	358.44
463.00	309.26
464.00	290.07
465.00	397.36
466.00	328.59
467.00	292.67
468.00	286.18
469.00	290.24
470.00	295.68
471.00	302.43
472.00	437.32
473.00	469.99
474.00	343.73
475.00	315.97
476.00	479.99
477.00	331.92
478.00	280.49
479.00	308.42
480.00	888.81
481.00	470.11
482.00	319.73
483.00	288.83
484.00	407.92
485.00	444.53
486.00	462.16
487.00	1180.18
488.00	915.88
489.00	495.52
490.00	361.51
491.00	331.23
492.00	326.26
493.00	350.31
494.00	309.01
495.00	310.44
496.00	447.42
497.00	348.20
498.00	301.63
499.00	301.54
500.00	404.22
501.00	486.15
502.00	352.07
503.00	305.50
504.00	343.35
505.00	384.03
506.00	411.73
507.00	381.46
508.00	365.04
509.00	337.90
510.00	306.40
511.00	300.03
512.00	303.87
513.00	319.04
514.00	437.53
515.00	350.96
516.00	334.60
517.00	304.40
518.00	345.56
519.00	322.39
520.00	287.69
521.00	293.28
522.00	305.86
523.00	287.06
524.00	291.41
525.00	306.14
526.00	298.30
527.00	282.26
528.00	283.72
529.00	274.88
530.00	271.21
531.00	288.21
532.00	293.99
533.00	304.97
534.00	305.83
535.00	317.79
536.00	310.02
537.00	314.14
538.00	308.76
539.00	302.02
540.00	300.93
541.00	299.86
542.00	305.81
543.00	297.78
544.00	316.67
545.00	330.27
546.00	327.62
547.00	339.22
548.00	316.62
549.00	382.39
550.00	368.31
551.00	330.89
552.00	312.14
553.00	302.42
554.00	292.17
555.00	342.00
556.00	349.95
557.00	325.22
558.00	296.53
559.00	288.51
560.00	322.72
561.00	296.42
562.00	272.76
563.00	270.83
564.00	287.01
565.00	317.35
566.00	298.64
567.00	293.14
568.00	307.08
569.00	310.30
570.00	296.45
571.00	290.80
572.00	267.32
573.00	276.47
574.00	296.41
575.00	268.07
576.00	268.88
577.00	281.92
578.00	273.81
579.00	269.43
580.00	274.52
581.00	261.37
582.00	252.97
583.00	273.41
584.00	265.32
585.00	259.93
586.00	271.66
587.00	272.14
588.00	299.07
589.00	331.44
590.00	281.61
591.00	285.63
592.00	280.90
593.00	290.18
594.00	269.06
595.00	259.44
596.00	253.43
597.00	256.66
598.00	269.35
599.00	276.22
600.00	280.89
601.00	296.17
602.00	289.36
603.00	497.13
604.00	423.47
605.00	336.00
606.00	310.97
607.00	266.01
608.00	244.23
609.00	249.84
610.00	281.37
611.00	345.56
612.00	322.35
613.00	275.00
614.00	266.25
615.00	273.45
616.00	277.88
617.00	348.82
618.00	283.04
619.00	267.02
620.00	261.63
621.00	278.16
622.00	270.81
623.00	249.23
624.00	280.97
625.00	290.65
626.00	274.07
627.00	263.11
628.00	258.86
629.00	268.75
630.00	285.84
631.00	280.38
632.00	251.75
633.00	244.47
634.00	237.14
635.00	241.00
636.00	244.82
637.00	250.54
638.00	252.99
639.00	248.38
640.00	257.72
641.00	276.35
642.00	309.68
643.00	262.25
644.00	248.44
645.00	246.00
646.00	261.07
647.00	254.52
648.00	251.22
649.00	245.51
650.00	237.00
651.00	238.05
652.00	238.70
653.00	238.78
654.00	250.61
655.00	247.12
656.00	477.47
657.00	418.15
658.00	304.98
659.00	248.77
660.00	239.60
661.00	237.95
662.00	228.71
663.00	223.09
664.00	286.85
665.00	281.44
666.00	245.96
667.00	242.43
668.00	261.50
669.00	262.53
670.00	229.05
671.00	226.55
672.00	228.98
673.00	232.01
674.00	229.20
675.00	302.71
676.00	324.62
677.00	247.44
678.00	227.89
679.00	229.57
680.00	221.33
681.00	225.29
682.00	231.26
683.00	225.15
684.00	228.28
685.00	224.30
686.00	225.77
687.00	278.18
688.00	260.23
689.00	248.67
690.00	232.63
691.00	227.21
692.00	225.45
693.00	229.74
694.00	262.57
695.00	249.89
696.00	310.03
697.00	561.36
698.00	324.11
699.00	257.63
700.00	237.63
701.00	232.49
702.00	227.83
703.00	287.05
704.00	274.69
705.00	238.50
706.00	230.46
707.00	439.76
708.00	315.40
709.00	248.75
710.00	223.04
711.00	233.41
712.00	219.11
713.00	226.43
714.00	225.77
715.00	252.38
716.00	242.27
717.00	222.30
718.00	217.01
719.00	214.14
720.00	221.72
721.00	229.18
722.00	222.88
723.00	228.70
724.00	226.60
725.00	242.01
726.00	219.56
727.00	244.65
728.00	282.27
729.00	235.69
730.00	220.61
731.00	226.61
732.00	223.61
733.00	224.13
734.00	216.26
735.00	231.17
736.00	257.67
737.00	275.42
738.00	375.91
739.00	527.54
740.00	312.06
741.00	248.28
742.00	225.07
743.00	229.98
744.00	235.64
745.00	236.55
746.00	216.50
747.00	215.44
748.00	213.22
749.00	229.35
750.00	346.65
751.00	1088.41
752.00	833.14
753.00	425.61
754.00	267.13
755.00	222.44
756.00	219.89
757.00	213.56
758.00	221.96
759.00	223.70
760.00	220.46
761.00	219.04
762.00	225.44
763.00	289.44
764.00	1797.20
765.00	857.88
766.00	432.55
767.00	254.19
768.00	216.21
769.00	215.89
770.00	208.62
771.00	211.20
772.00	239.37
773.00	542.01
774.00	337.95
775.00	255.94
776.00	213.17
777.00	239.87
778.00	397.02
779.00	285.92
780.00	236.55
781.00	211.92
782.00	208.34
783.00	207.88
784.00	214.20
785.00	214.01
786.00	217.51
787.00	219.28
788.00	217.10
789.00	230.95
790.00	229.76
791.00	221.41
792.00	218.11
793.00	216.83
794.00	213.41
795.00	455.47
796.00	460.86
797.00	292.99
798.00	245.87
799.00	221.62
800.00	217.12
801.00	425.73
802.00	717.35
803.00	433.58
804.00	286.35
805.00	234.93
806.00	220.89
807.00	219.96
808.00	218.41
809.00	217.86
810.00	239.82
811.00	651.52
812.00	3383.11
813.00	2018.60
814.00	786.33
815.00	418.03
816.00	235.10
817.00	215.77
818.00	214.43
819.00	213.22
820.00	211.26
821.00	207.93
822.00	211.93
823.00	208.31
824.00	206.60
825.00	214.99
826.00	217.08
827.00	370.00
828.00	293.98
829.00	238.41
830.00	217.92
831.00	210.55
832.00	206.48
833.00	205.00
834.00	207.75
835.00	204.66
836.00	208.26
837.00	208.07
838.00	209.27
839.00	216.10
840.00	212.32
841.00	323.70
842.00	383.76
843.00	700.81
844.00	448.99
845.00	309.40
846.00	260.32
847.00	216.06
848.00	206.58
849.00	205.52
850.00	205.09
851.00	206.18
852.00	222.57
853.00	326.01
854.00	243.19
855.00	220.75
856.00	223.96
857.00	208.55
858.00	207.37
859.00	205.98
860.00	207.16
861.00	209.94
862.00	211.67
863.00	208.66
864.00	212.06
865.00	210.48
866.00	207.94
867.00	214.47
868.00	215.04
869.00	215.15
870.00	210.14
871.00	208.88
872.00	209.90
873.00	205.57
874.00	202.47
875.00	210.46
876.00	204.23
877.00	207.82
878.00	207.89
879.00	203.03
880.00	207.90
881.00	205.35
882.00	204.90
883.00	204.49
884.00	206.00
885.00	203.74
886.00	201.28
887.00	206.12
888.00	204.11
889.00	203.84
890.00	209.06
891.00	207.19
892.00	205.37
893.00	204.27
894.00	206.12
895.00	209.56
896.00	207.75
897.00	201.20
898.00	204.45
899.00	199.43
900.00	205.94
901.00	205.62
902.00	202.58
903.00	208.42
904.00	204.08
905.00	205.00
906.00	205.52
907.00	208.99
908.00	206.55
909.00	205.16
910.00	205.60
911.00	209.70
912.00	236.14
913.00	427.08
914.00	332.79
915.00	274.90
916.00	249.11
917.00	222.13
918.00	207.36
919.00	206.60
920.00	206.77
921.00	204.95
922.00	204.54
923.00	222.95
924.00	233.37
925.00	218.73
926.00	213.98
927.00	211.26
928.00	202.53
929.00	203.13
930.00	207.00
931.00	205.04
932.00	205.99
933.00	201.07
934.00	205.55
935.00	200.62
936.00	203.09
937.00	206.02
938.00	203.58
939.00	208.12
940.00	204.02
941.00	206.14
942.00	206.01
943.00	205.43
944.00	204.34
945.00	207.63
946.00	206.14
947.00	202.90
948.00	207.33
949.00	201.12
950.00	203.92
951.00	202.56
952.00	203.08
953.00	203.31
954.00	202.98
955.00	204.81
956.00	205.75
957.00	204.46
958.00	205.16
959.00	203.94
960.00	203.74
961.00	201.77
962.00	201.50
963.00	202.97
964.00	204.35
965.00	203.23
966.00	200.25
967.00	217.37
968.00	214.99
969.00	211.59
970.00	208.71
971.00	209.17
972.00	204.91
973.00	207.84
974.00	209.71
975.00	205.84
976.00	207.28
977.00	204.18
978.00	202.21
979.00	206.03
980.00	201.51
981.00	203.76
982.00	205.11
983.00	209.14
984.00	200.53
985.00	207.80
986.00	206.17
987.00	202.23
988.00	202.42
989.00	202.55
990.00	204.54
991.00	203.04
992.00	207.30
993.00	207.47
994.00	204.50
995.00	205.42
996.00	198.50
997.00	204.42
998.00	206.66
999.00	206.03
1000.00	202.95
>>>>>End Processed Spectral Data<<<<<
