SpectraSuite Data File
++++++++++++++++++++++++++++++++++++
Date: Tue Oct 18 14:43:23 CDT 2011
User: Helimak
Dark Spectrum Present: No
Reference Spectrum Present: No
Number of Sampled Component Spectra: 1
Spectrometers: USB2G37154
Integration Time (usec): 200000 (USB2G37154)
Spectra Averaged: 1 (USB2G37154)
Boxcar Smoothing: 0 (USB2G37154)
Correct for Electrical Dark: No (USB2G37154)
Strobe/Lamp Enabled: No (USB2G37154)
Correct for Detector Non-linearity: No (USB2G37154)
Correct for Stray Light: No (USB2G37154)
Number of Pixels in Processed Spectrum: 651
>>>>>Begin Processed Spectral Data<<<<<
350.00	204.79
351.00	208.61
352.00	199.95
353.00	201.44
354.00	198.59
355.00	202.14
356.00	206.93
357.00	204.03
358.00	219.19
359.00	208.20
360.00	210.47
361.00	212.24
362.00	212.22
363.00	212.01
364.00	212.82
365.00	208.04
366.00	212.54
367.00	215.01
368.00	210.97
369.00	214.90
370.00	214.05
371.00	213.68
372.00	217.32
373.00	217.75
374.00	213.55
375.00	222.85
376.00	228.37
377.00	229.07
378.00	239.53
379.00	234.55
380.00	240.04
381.00	236.87
382.00	242.56
383.00	241.54
384.00	253.09
385.00	262.00
386.00	255.90
387.00	257.73
388.00	244.98
389.00	234.72
390.00	240.48
391.00	251.56
392.00	253.31
393.00	272.49
394.00	270.55
395.00	250.82
396.00	251.96
397.00	249.71
398.00	244.98
399.00	260.37
400.00	304.02
401.00	328.80
402.00	320.99
403.00	340.04
404.00	345.39
405.00	310.90
406.00	337.10
407.00	371.45
408.00	305.53
409.00	305.05
410.00	313.89
411.00	277.98
412.00	287.48
413.00	282.19
414.00	269.27
415.00	370.63
416.00	331.94
417.00	300.43
418.00	344.41
419.00	516.89
420.00	417.03
421.00	309.11
422.00	379.55
423.00	338.27
424.00	310.00
425.00	466.12
426.00	600.92
427.00	600.73
428.00	420.27
429.00	400.63
430.00	372.66
431.00	317.88
432.00	417.37
433.00	550.34
434.00	1548.10
435.00	889.73
436.00	538.35
437.00	471.85
438.00	383.27
439.00	515.56
440.00	446.14
441.00	433.35
442.00	950.78
443.00	575.16
444.00	348.30
445.00	283.82
446.00	280.03
447.00	328.78
448.00	324.55
449.00	302.18
450.00	326.48
451.00	318.75
452.00	319.98
453.00	353.84
454.00	495.07
455.00	397.87
456.00	368.37
457.00	456.88
458.00	688.23
459.00	530.34
460.00	919.47
461.00	631.21
462.00	405.51
463.00	329.55
464.00	303.23
465.00	435.53
466.00	353.69
467.00	306.43
468.00	300.76
469.00	311.82
470.00	307.73
471.00	314.01
472.00	485.16
473.00	550.80
474.00	382.57
475.00	335.62
476.00	525.40
477.00	359.49
478.00	299.51
479.00	338.52
480.00	1103.09
481.00	552.16
482.00	352.09
483.00	305.71
484.00	466.98
485.00	500.38
486.00	515.70
487.00	1416.95
488.00	1122.80
489.00	566.10
490.00	394.38
491.00	355.33
492.00	349.04
493.00	393.79
494.00	333.62
495.00	323.23
496.00	496.81
497.00	377.90
498.00	316.74
499.00	314.06
500.00	454.79
501.00	542.54
502.00	385.09
503.00	332.91
504.00	364.39
505.00	423.52
506.00	462.90
507.00	431.64
508.00	396.03
509.00	363.94
510.00	333.93
511.00	323.96
512.00	320.15
513.00	352.65
514.00	504.47
515.00	381.49
516.00	345.74
517.00	321.39
518.00	356.99
519.00	327.82
520.00	298.46
521.00	308.17
522.00	321.52
523.00	296.15
524.00	302.15
525.00	321.88
526.00	316.59
527.00	302.41
528.00	304.70
529.00	301.04
530.00	291.92
531.00	298.90
532.00	318.12
533.00	321.67
534.00	326.94
535.00	340.28
536.00	339.87
537.00	336.64
538.00	325.61
539.00	325.01
540.00	318.71
541.00	319.88
542.00	328.12
543.00	317.73
544.00	337.40
545.00	349.54
546.00	342.89
547.00	353.12
548.00	329.15
549.00	402.99
550.00	388.90
551.00	355.87
552.00	340.45
553.00	331.83
554.00	316.72
555.00	351.72
556.00	368.71
557.00	339.87
558.00	302.92
559.00	298.00
560.00	335.37
561.00	313.85
562.00	292.76
563.00	282.16
564.00	295.94
565.00	331.06
566.00	316.93
567.00	320.81
568.00	327.96
569.00	326.92
570.00	310.45
571.00	306.78
572.00	278.46
573.00	293.37
574.00	307.41
575.00	280.55
576.00	281.20
577.00	296.35
578.00	283.70
579.00	285.81
580.00	283.48
581.00	272.18
582.00	261.04
583.00	284.74
584.00	275.09
585.00	270.47
586.00	281.40
587.00	286.11
588.00	323.67
589.00	337.99
590.00	291.06
591.00	298.38
592.00	290.01
593.00	297.09
594.00	281.03
595.00	266.45
596.00	258.15
597.00	269.25
598.00	280.79
599.00	288.92
600.00	294.03
601.00	304.07
602.00	305.36
603.00	498.57
604.00	441.21
605.00	354.76
606.00	322.84
607.00	277.20
608.00	257.57
609.00	257.09
610.00	285.86
611.00	367.85
612.00	346.37
613.00	283.20
614.00	273.30
615.00	281.02
616.00	280.42
617.00	362.85
618.00	296.75
619.00	281.47
620.00	266.40
621.00	293.49
622.00	276.98
623.00	257.93
624.00	291.86
625.00	298.07
626.00	285.40
627.00	274.99
628.00	274.52
629.00	275.06
630.00	293.41
631.00	292.60
632.00	262.72
633.00	251.63
634.00	243.04
635.00	250.99
636.00	249.15
637.00	255.98
638.00	254.72
639.00	255.80
640.00	264.66
641.00	289.78
642.00	320.12
643.00	273.47
644.00	264.30
645.00	254.62
646.00	271.94
647.00	264.18
648.00	264.62
649.00	254.73
650.00	245.88
651.00	247.14
652.00	242.17
653.00	241.63
654.00	256.46
655.00	252.05
656.00	507.15
657.00	463.83
658.00	325.96
659.00	255.43
660.00	247.67
661.00	244.68
662.00	235.79
663.00	232.66
664.00	309.09
665.00	304.78
666.00	252.47
667.00	246.49
668.00	272.57
669.00	273.44
670.00	248.20
671.00	234.05
672.00	241.14
673.00	235.97
674.00	232.29
675.00	312.05
676.00	325.12
677.00	260.78
678.00	235.39
679.00	227.77
680.00	227.00
681.00	231.19
682.00	236.80
683.00	226.61
684.00	237.19
685.00	228.10
686.00	231.15
687.00	287.28
688.00	274.34
689.00	263.49
690.00	235.96
691.00	224.32
692.00	229.23
693.00	239.18
694.00	275.41
695.00	263.90
696.00	312.03
697.00	593.25
698.00	333.05
699.00	264.32
700.00	242.33
701.00	236.85
702.00	234.06
703.00	296.95
704.00	284.26
705.00	250.18
706.00	239.96
707.00	465.35
708.00	316.56
709.00	256.20
710.00	225.50
711.00	239.05
712.00	228.12
713.00	225.50
714.00	223.07
715.00	258.60
716.00	244.11
717.00	230.16
718.00	223.64
719.00	218.13
720.00	219.22
721.00	231.58
722.00	230.54
723.00	234.99
724.00	235.11
725.00	248.97
726.00	222.93
727.00	255.16
728.00	299.71
729.00	240.79
730.00	231.93
731.00	225.84
732.00	228.71
733.00	219.16
734.00	218.19
735.00	237.36
736.00	260.42
737.00	278.00
738.00	385.40
739.00	571.50
740.00	326.60
741.00	247.60
742.00	230.04
743.00	230.06
744.00	239.84
745.00	239.46
746.00	215.51
747.00	218.04
748.00	220.58
749.00	229.20
750.00	357.32
751.00	1204.75
752.00	890.46
753.00	450.67
754.00	276.86
755.00	222.78
756.00	216.80
757.00	215.85
758.00	221.54
759.00	225.95
760.00	220.47
761.00	224.25
762.00	224.61
763.00	296.37
764.00	1964.85
765.00	922.40
766.00	457.48
767.00	256.15
768.00	215.75
769.00	215.43
770.00	213.58
771.00	212.81
772.00	243.56
773.00	574.62
774.00	343.24
775.00	263.93
776.00	217.81
777.00	250.72
778.00	466.98
779.00	316.14
780.00	247.70
781.00	215.17
782.00	212.03
783.00	214.41
784.00	206.41
785.00	213.26
786.00	217.95
787.00	217.69
788.00	225.77
789.00	230.93
790.00	239.02
791.00	227.30
792.00	226.22
793.00	220.30
794.00	218.40
795.00	467.65
796.00	483.87
797.00	307.39
798.00	249.69
799.00	224.51
800.00	215.73
801.00	432.91
802.00	769.54
803.00	470.94
804.00	291.78
805.00	240.68
806.00	221.23
807.00	218.92
808.00	224.74
809.00	222.25
810.00	243.45
811.00	701.68
812.00	3607.63
813.00	2179.72
814.00	838.15
815.00	447.53
816.00	234.28
817.00	222.31
818.00	210.05
819.00	211.49
820.00	208.90
821.00	207.93
822.00	213.58
823.00	207.83
824.00	210.26
825.00	219.26
826.00	210.25
827.00	382.13
828.00	290.82
829.00	243.00
830.00	224.01
831.00	211.94
832.00	210.71
833.00	210.76
834.00	210.16
835.00	209.27
836.00	206.52
837.00	209.40
838.00	208.10
839.00	206.92
840.00	214.66
841.00	334.21
842.00	415.75
843.00	739.14
844.00	475.79
845.00	323.66
846.00	271.98
847.00	220.55
848.00	206.48
849.00	208.64
850.00	205.85
851.00	207.45
852.00	222.40
853.00	335.28
854.00	245.54
855.00	221.65
856.00	222.82
857.00	211.27
858.00	210.24
859.00	205.17
860.00	206.27
861.00	216.50
862.00	207.03
863.00	209.34
864.00	214.79
865.00	210.99
866.00	209.69
867.00	220.01
868.00	223.01
869.00	212.42
870.00	212.19
871.00	210.71
872.00	203.88
873.00	209.46
874.00	207.92
875.00	203.15
876.00	208.32
877.00	209.48
878.00	207.16
879.00	209.56
880.00	200.99
881.00	203.65
882.00	205.65
883.00	206.05
884.00	198.01
885.00	207.85
886.00	211.71
887.00	204.08
888.00	204.57
889.00	203.48
890.00	204.97
891.00	206.96
892.00	205.42
893.00	205.65
894.00	201.58
895.00	208.85
896.00	204.85
897.00	206.75
898.00	205.65
899.00	203.82
900.00	205.57
901.00	205.27
902.00	206.25
903.00	208.47
904.00	206.64
905.00	203.15
906.00	208.67
907.00	209.02
908.00	209.90
909.00	204.99
910.00	207.34
911.00	211.13
912.00	232.19
913.00	445.12
914.00	342.29
915.00	285.15
916.00	250.39
917.00	229.79
918.00	209.29
919.00	205.11
920.00	209.05
921.00	206.27
922.00	213.86
923.00	240.00
924.00	236.07
925.00	223.30
926.00	212.99
927.00	213.21
928.00	205.71
929.00	203.08
930.00	205.49
931.00	208.45
932.00	204.17
933.00	206.52
934.00	204.08
935.00	203.22
936.00	205.95
937.00	205.80
938.00	208.99
939.00	206.10
940.00	208.62
941.00	206.33
942.00	203.96
943.00	207.98
944.00	200.43
945.00	206.29
946.00	206.05
947.00	204.08
948.00	202.05
949.00	204.55
950.00	201.12
951.00	207.11
952.00	202.03
953.00	204.60
954.00	206.44
955.00	206.39
956.00	205.25
957.00	207.24
958.00	204.44
959.00	204.89
960.00	205.82
961.00	200.71
962.00	202.18
963.00	204.86
964.00	203.63
965.00	209.28
966.00	208.19
967.00	214.55
968.00	216.97
969.00	208.65
970.00	212.39
971.00	208.46
972.00	200.82
973.00	208.91
974.00	209.08
975.00	201.17
976.00	203.61
977.00	204.11
978.00	206.27
979.00	209.38
980.00	201.75
981.00	204.45
982.00	204.59
983.00	209.64
984.00	202.02
985.00	203.53
986.00	207.24
987.00	205.15
988.00	205.66
989.00	205.37
990.00	204.94
991.00	202.38
992.00	202.84
993.00	208.77
994.00	202.91
995.00	202.97
996.00	205.57
997.00	207.41
998.00	206.59
999.00	203.45
1000.00	204.85
>>>>>End Processed Spectral Data<<<<<
