SpectraSuite Data File
++++++++++++++++++++++++++++++++++++
Date: Tue Oct 18 14:51:56 CDT 2011
User: Helimak
Dark Spectrum Present: No
Reference Spectrum Present: No
Number of Sampled Component Spectra: 1
Spectrometers: USB2G37154
Integration Time (usec): 200000 (USB2G37154)
Spectra Averaged: 1 (USB2G37154)
Boxcar Smoothing: 0 (USB2G37154)
Correct for Electrical Dark: No (USB2G37154)
Strobe/Lamp Enabled: No (USB2G37154)
Correct for Detector Non-linearity: No (USB2G37154)
Correct for Stray Light: No (USB2G37154)
Number of Pixels in Processed Spectrum: 651
>>>>>Begin Processed Spectral Data<<<<<
350.00	200.59
351.00	202.75
352.00	203.46
353.00	202.04
354.00	200.43
355.00	200.30
356.00	205.54
357.00	203.36
358.00	205.11
359.00	206.68
360.00	206.58
361.00	204.84
362.00	208.72
363.00	205.75
364.00	207.73
365.00	207.85
366.00	208.82
367.00	211.99
368.00	204.81
369.00	209.48
370.00	205.95
371.00	212.28
372.00	210.56
373.00	210.16
374.00	212.41
375.00	212.31
376.00	213.42
377.00	211.66
378.00	219.48
379.00	215.22
380.00	220.64
381.00	216.38
382.00	221.83
383.00	222.61
384.00	221.91
385.00	229.48
386.00	225.03
387.00	225.76
388.00	220.84
389.00	221.57
390.00	217.13
391.00	224.09
392.00	227.84
393.00	223.92
394.00	228.36
395.00	221.90
396.00	220.09
397.00	222.53
398.00	218.07
399.00	230.41
400.00	237.36
401.00	247.19
402.00	247.66
403.00	255.09
404.00	259.37
405.00	248.26
406.00	256.03
407.00	257.52
408.00	239.42
409.00	244.27
410.00	243.66
411.00	234.09
412.00	238.45
413.00	234.92
414.00	229.19
415.00	281.59
416.00	265.46
417.00	247.88
418.00	271.88
419.00	358.47
420.00	302.44
421.00	246.03
422.00	263.27
423.00	254.03
424.00	246.57
425.00	312.48
426.00	363.43
427.00	350.51
428.00	295.68
429.00	290.65
430.00	274.34
431.00	259.16
432.00	292.69
433.00	343.18
434.00	604.60
435.00	412.29
436.00	316.26
437.00	296.17
438.00	269.77
439.00	307.82
440.00	285.82
441.00	284.04
442.00	428.11
443.00	319.31
444.00	259.98
445.00	234.98
446.00	240.26
447.00	258.69
448.00	248.19
449.00	250.12
450.00	263.75
451.00	264.92
452.00	264.07
453.00	271.08
454.00	322.64
455.00	283.64
456.00	286.84
457.00	308.06
458.00	366.02
459.00	320.70
460.00	432.74
461.00	348.06
462.00	285.34
463.00	267.63
464.00	253.93
465.00	304.24
466.00	271.68
467.00	256.55
468.00	253.01
469.00	255.71
470.00	256.38
471.00	261.05
472.00	308.25
473.00	320.86
474.00	278.22
475.00	265.10
476.00	317.98
477.00	270.03
478.00	251.03
479.00	262.41
480.00	477.53
481.00	328.44
482.00	270.64
483.00	258.96
484.00	302.85
485.00	329.03
486.00	337.22
487.00	582.86
488.00	509.56
489.00	350.64
490.00	289.68
491.00	279.11
492.00	279.66
493.00	297.74
494.00	266.41
495.00	268.05
496.00	312.28
497.00	286.98
498.00	269.37
499.00	264.29
500.00	305.80
501.00	327.87
502.00	277.03
503.00	278.18
504.00	287.27
505.00	312.22
506.00	317.89
507.00	313.37
508.00	306.55
509.00	285.33
510.00	269.26
511.00	262.02
512.00	266.02
513.00	277.99
514.00	321.89
515.00	284.89
516.00	277.41
517.00	266.24
518.00	281.91
519.00	277.31
520.00	263.20
521.00	261.41
522.00	263.51
523.00	257.11
524.00	256.59
525.00	271.75
526.00	262.33
527.00	258.40
528.00	258.04
529.00	250.14
530.00	249.90
531.00	263.52
532.00	258.46
533.00	274.73
534.00	276.21
535.00	286.89
536.00	279.08
537.00	277.84
538.00	275.16
539.00	271.37
540.00	262.87
541.00	260.42
542.00	274.67
543.00	267.27
544.00	268.74
545.00	278.07
546.00	278.06
547.00	292.53
548.00	274.86
549.00	308.12
550.00	301.12
551.00	287.98
552.00	274.39
553.00	270.79
554.00	265.27
555.00	286.52
556.00	295.34
557.00	279.88
558.00	241.74
559.00	256.14
560.00	277.11
561.00	260.21
562.00	249.93
563.00	243.88
564.00	251.81
565.00	273.85
566.00	264.55
567.00	270.20
568.00	274.05
569.00	267.24
570.00	266.38
571.00	264.58
572.00	245.30
573.00	251.48
574.00	263.66
575.00	251.79
576.00	244.54
577.00	252.19
578.00	252.42
579.00	247.27
580.00	248.26
581.00	240.11
582.00	238.65
583.00	246.96
584.00	244.64
585.00	242.77
586.00	248.72
587.00	244.00
588.00	264.81
589.00	279.81
590.00	255.34
591.00	252.83
592.00	245.42
593.00	255.44
594.00	243.03
595.00	235.61
596.00	235.98
597.00	242.51
598.00	248.09
599.00	254.96
600.00	254.03
601.00	262.12
602.00	262.08
603.00	360.14
604.00	326.62
605.00	288.12
606.00	269.90
607.00	242.96
608.00	232.80
609.00	235.94
610.00	250.56
611.00	270.58
612.00	263.38
613.00	242.80
614.00	240.86
615.00	246.13
616.00	247.98
617.00	273.92
618.00	252.30
619.00	251.91
620.00	240.96
621.00	252.84
622.00	242.24
623.00	233.16
624.00	249.14
625.00	252.07
626.00	245.01
627.00	235.11
628.00	244.94
629.00	248.64
630.00	252.33
631.00	251.51
632.00	234.21
633.00	232.38
634.00	228.26
635.00	232.97
636.00	229.84
637.00	228.80
638.00	231.43
639.00	231.97
640.00	238.78
641.00	248.75
642.00	264.34
643.00	244.91
644.00	235.01
645.00	235.90
646.00	237.18
647.00	235.92
648.00	236.15
649.00	230.97
650.00	223.21
651.00	223.78
652.00	225.07
653.00	225.34
654.00	232.36
655.00	233.03
656.00	348.47
657.00	323.33
658.00	258.99
659.00	230.72
660.00	222.88
661.00	226.17
662.00	218.16
663.00	216.76
664.00	247.71
665.00	239.09
666.00	228.50
667.00	228.73
668.00	238.10
669.00	232.95
670.00	226.81
671.00	223.69
672.00	219.11
673.00	221.03
674.00	225.24
675.00	254.36
676.00	258.94
677.00	231.85
678.00	222.36
679.00	220.87
680.00	218.36
681.00	216.74
682.00	221.96
683.00	217.40
684.00	220.23
685.00	218.09
686.00	213.77
687.00	248.17
688.00	229.04
689.00	232.76
690.00	216.48
691.00	218.38
692.00	224.52
693.00	218.07
694.00	237.25
695.00	234.84
696.00	258.01
697.00	401.82
698.00	273.33
699.00	237.30
700.00	226.58
701.00	226.99
702.00	222.53
703.00	254.47
704.00	244.70
705.00	225.11
706.00	220.42
707.00	338.52
708.00	261.79
709.00	226.97
710.00	217.15
711.00	215.60
712.00	220.90
713.00	215.70
714.00	216.39
715.00	231.89
716.00	222.25
717.00	217.60
718.00	210.02
719.00	209.72
720.00	212.47
721.00	222.25
722.00	214.85
723.00	220.73
724.00	215.57
725.00	236.26
726.00	216.22
727.00	229.98
728.00	244.85
729.00	224.66
730.00	211.91
731.00	217.01
732.00	216.19
733.00	213.71
734.00	210.90
735.00	214.95
736.00	229.11
737.00	246.10
738.00	296.78
739.00	377.22
740.00	264.62
741.00	225.89
742.00	214.95
743.00	215.03
744.00	219.20
745.00	222.67
746.00	209.63
747.00	210.45
748.00	209.45
749.00	214.57
750.00	274.27
751.00	658.06
752.00	536.06
753.00	328.87
754.00	239.42
755.00	214.49
756.00	212.22
757.00	212.04
758.00	215.97
759.00	215.93
760.00	215.71
761.00	211.32
762.00	215.91
763.00	251.53
764.00	1039.12
765.00	550.42
766.00	328.53
767.00	232.66
768.00	214.75
769.00	212.06
770.00	207.86
771.00	206.03
772.00	222.65
773.00	385.20
774.00	273.60
775.00	238.22
776.00	209.47
777.00	219.24
778.00	313.02
779.00	249.28
780.00	223.11
781.00	208.27
782.00	207.34
783.00	204.91
784.00	206.11
785.00	209.88
786.00	210.30
787.00	211.63
788.00	213.29
789.00	216.97
790.00	219.38
791.00	219.70
792.00	215.54
793.00	216.85
794.00	208.94
795.00	333.52
796.00	339.84
797.00	252.08
798.00	230.46
799.00	214.92
800.00	219.21
801.00	324.96
802.00	475.19
803.00	335.25
804.00	249.47
805.00	221.25
806.00	215.14
807.00	210.88
808.00	211.66
809.00	213.17
810.00	221.79
811.00	452.94
812.00	2021.95
813.00	1199.20
814.00	531.78
815.00	320.01
816.00	219.64
817.00	219.13
818.00	209.73
819.00	205.95
820.00	208.44
821.00	203.89
822.00	210.75
823.00	211.39
824.00	201.52
825.00	213.64
826.00	206.83
827.00	294.23
828.00	244.70
829.00	221.28
830.00	209.46
831.00	209.52
832.00	204.84
833.00	203.48
834.00	207.13
835.00	209.24
836.00	204.29
837.00	208.81
838.00	205.18
839.00	209.90
840.00	204.64
841.00	266.86
842.00	310.10
843.00	468.74
844.00	337.59
845.00	266.53
846.00	229.04
847.00	211.44
848.00	204.58
849.00	202.56
850.00	204.51
851.00	209.40
852.00	211.72
853.00	267.89
854.00	226.52
855.00	216.15
856.00	212.46
857.00	204.23
858.00	211.81
859.00	202.38
860.00	206.84
861.00	208.72
862.00	206.16
863.00	209.24
864.00	194.95
865.00	209.39
866.00	206.32
867.00	210.62
868.00	209.94
869.00	208.37
870.00	207.10
871.00	197.38
872.00	207.05
873.00	200.33
874.00	203.07
875.00	201.98
876.00	206.03
877.00	208.23
878.00	204.56
879.00	204.01
880.00	205.07
881.00	207.22
882.00	207.94
883.00	202.02
884.00	206.01
885.00	203.02
886.00	205.24
887.00	203.92
888.00	201.16
889.00	204.96
890.00	203.66
891.00	205.37
892.00	210.27
893.00	199.83
894.00	202.75
895.00	215.90
896.00	204.04
897.00	203.49
898.00	202.34
899.00	205.61
900.00	207.71
901.00	202.21
902.00	202.38
903.00	207.84
904.00	207.36
905.00	202.09
906.00	206.27
907.00	204.05
908.00	202.46
909.00	203.62
910.00	207.67
911.00	206.14
912.00	224.54
913.00	333.98
914.00	277.87
915.00	242.49
916.00	228.60
917.00	214.95
918.00	203.00
919.00	204.74
920.00	203.11
921.00	205.13
922.00	206.01
923.00	221.15
924.00	216.03
925.00	214.28
926.00	207.00
927.00	209.20
928.00	207.23
929.00	203.03
930.00	212.09
931.00	201.31
932.00	203.27
933.00	206.47
934.00	201.04
935.00	202.60
936.00	204.89
937.00	201.86
938.00	206.89
939.00	205.88
940.00	206.80
941.00	203.45
942.00	206.88
943.00	204.47
944.00	202.71
945.00	211.55
946.00	204.17
947.00	202.02
948.00	205.79
949.00	205.48
950.00	198.84
951.00	206.43
952.00	201.99
953.00	203.78
954.00	202.31
955.00	204.39
956.00	206.30
957.00	201.09
958.00	204.70
959.00	202.91
960.00	203.53
961.00	198.95
962.00	201.73
963.00	202.55
964.00	206.41
965.00	200.64
966.00	206.96
967.00	211.81
968.00	207.02
969.00	204.99
970.00	204.69
971.00	204.74
972.00	207.74
973.00	209.00
974.00	204.58
975.00	201.76
976.00	203.06
977.00	203.73
978.00	201.91
979.00	204.49
980.00	200.46
981.00	204.01
982.00	207.68
983.00	207.93
984.00	203.51
985.00	209.84
986.00	202.94
987.00	202.60
988.00	204.33
989.00	203.48
990.00	203.92
991.00	201.44
992.00	204.12
993.00	208.11
994.00	202.18
995.00	202.13
996.00	203.15
997.00	203.02
998.00	201.74
999.00	202.91
1000.00	201.03
>>>>>End Processed Spectral Data<<<<<
