SpectraSuite Data File
++++++++++++++++++++++++++++++++++++
Date: Tue Oct 18 14:40:16 CDT 2011
User: Helimak
Dark Spectrum Present: No
Reference Spectrum Present: No
Number of Sampled Component Spectra: 1
Spectrometers: USB2G37154
Integration Time (usec): 200000 (USB2G37154)
Spectra Averaged: 1 (USB2G37154)
Boxcar Smoothing: 0 (USB2G37154)
Correct for Electrical Dark: No (USB2G37154)
Strobe/Lamp Enabled: No (USB2G37154)
Correct for Detector Non-linearity: No (USB2G37154)
Correct for Stray Light: No (USB2G37154)
Number of Pixels in Processed Spectrum: 651
>>>>>Begin Processed Spectral Data<<<<<
350.00	201.14
351.00	203.82
352.00	202.53
353.00	204.42
354.00	205.34
355.00	204.32
356.00	204.39
357.00	192.11
358.00	200.82
359.00	203.15
360.00	205.88
361.00	204.66
362.00	207.81
363.00	205.45
364.00	206.61
365.00	200.00
366.00	199.59
367.00	203.04
368.00	206.93
369.00	205.16
370.00	207.00
371.00	204.96
372.00	206.15
373.00	207.12
374.00	205.95
375.00	209.00
376.00	209.82
377.00	208.12
378.00	217.72
379.00	210.55
380.00	215.15
381.00	214.91
382.00	219.48
383.00	217.95
384.00	218.82
385.00	219.95
386.00	217.91
387.00	219.91
388.00	216.57
389.00	213.92
390.00	213.25
391.00	215.53
392.00	219.84
393.00	222.55
394.00	222.03
395.00	221.19
396.00	217.98
397.00	213.01
398.00	215.94
399.00	219.56
400.00	228.79
401.00	235.73
402.00	238.79
403.00	245.75
404.00	245.96
405.00	228.45
406.00	239.02
407.00	243.20
408.00	235.59
409.00	243.05
410.00	237.09
411.00	225.68
412.00	226.71
413.00	222.96
414.00	226.89
415.00	259.50
416.00	248.68
417.00	237.89
418.00	259.45
419.00	311.37
420.00	278.90
421.00	240.09
422.00	249.65
423.00	236.60
424.00	235.43
425.00	290.89
426.00	319.27
427.00	313.30
428.00	267.06
429.00	261.67
430.00	254.83
431.00	244.00
432.00	264.89
433.00	293.71
434.00	466.31
435.00	340.35
436.00	278.64
437.00	272.94
438.00	252.85
439.00	283.63
440.00	265.07
441.00	257.65
442.00	349.86
443.00	284.26
444.00	243.83
445.00	227.92
446.00	230.77
447.00	240.59
448.00	238.59
449.00	236.04
450.00	247.64
451.00	249.76
452.00	243.70
453.00	251.57
454.00	281.71
455.00	262.31
456.00	261.95
457.00	276.60
458.00	318.14
459.00	280.00
460.00	367.18
461.00	298.61
462.00	262.86
463.00	249.36
464.00	240.34
465.00	275.59
466.00	253.93
467.00	239.04
468.00	242.30
469.00	248.42
470.00	248.32
471.00	244.25
472.00	274.40
473.00	287.59
474.00	254.72
475.00	247.37
476.00	289.75
477.00	251.16
478.00	238.18
479.00	246.30
480.00	392.63
481.00	285.58
482.00	255.99
483.00	246.04
484.00	266.09
485.00	288.30
486.00	294.95
487.00	457.47
488.00	407.92
489.00	297.45
490.00	268.22
491.00	251.97
492.00	251.64
493.00	268.01
494.00	245.67
495.00	250.73
496.00	282.60
497.00	260.15
498.00	249.33
499.00	247.37
500.00	271.43
501.00	287.08
502.00	254.02
503.00	252.98
504.00	265.08
505.00	275.27
506.00	283.66
507.00	278.19
508.00	274.75
509.00	261.20
510.00	254.23
511.00	250.04
512.00	250.66
513.00	254.54
514.00	281.73
515.00	262.14
516.00	264.22
517.00	250.93
518.00	260.26
519.00	256.63
520.00	242.38
521.00	245.28
522.00	252.63
523.00	241.82
524.00	242.75
525.00	251.29
526.00	252.27
527.00	239.91
528.00	244.07
529.00	237.08
530.00	239.82
531.00	241.10
532.00	250.22
533.00	255.87
534.00	248.44
535.00	261.06
536.00	254.99
537.00	254.12
538.00	247.97
539.00	249.76
540.00	248.10
541.00	245.52
542.00	253.22
543.00	250.03
544.00	251.52
545.00	260.22
546.00	258.08
547.00	265.20
548.00	256.56
549.00	278.26
550.00	273.75
551.00	263.98
552.00	251.54
553.00	248.52
554.00	245.40
555.00	268.78
556.00	269.73
557.00	261.41
558.00	242.49
559.00	244.22
560.00	258.79
561.00	244.41
562.00	240.75
563.00	233.58
564.00	241.20
565.00	252.57
566.00	250.41
567.00	252.56
568.00	256.04
569.00	253.37
570.00	248.05
571.00	250.00
572.00	235.11
573.00	244.20
574.00	250.63
575.00	234.33
576.00	238.22
577.00	240.12
578.00	240.16
579.00	232.47
580.00	236.04
581.00	230.28
582.00	229.44
583.00	237.47
584.00	235.59
585.00	228.57
586.00	239.73
587.00	236.14
588.00	244.94
589.00	258.46
590.00	241.48
591.00	247.08
592.00	241.97
593.00	242.79
594.00	233.03
595.00	227.85
596.00	225.02
597.00	234.92
598.00	233.93
599.00	241.56
600.00	242.10
601.00	246.04
602.00	242.56
603.00	313.00
604.00	294.48
605.00	268.57
606.00	251.25
607.00	230.36
608.00	226.75
609.00	229.97
610.00	242.46
611.00	248.71
612.00	247.19
613.00	236.25
614.00	233.34
615.00	231.28
616.00	235.99
617.00	250.95
618.00	235.29
619.00	238.06
620.00	223.55
621.00	236.46
622.00	230.52
623.00	225.28
624.00	235.37
625.00	231.78
626.00	230.01
627.00	228.73
628.00	229.08
629.00	236.30
630.00	241.93
631.00	237.08
632.00	228.76
633.00	222.61
634.00	220.66
635.00	222.02
636.00	225.74
637.00	222.57
638.00	224.42
639.00	225.67
640.00	236.53
641.00	235.87
642.00	249.83
643.00	233.51
644.00	226.50
645.00	225.07
646.00	231.06
647.00	223.25
648.00	225.89
649.00	224.18
650.00	217.41
651.00	219.83
652.00	221.32
653.00	221.31
654.00	223.42
655.00	221.43
656.00	301.64
657.00	284.94
658.00	240.99
659.00	218.54
660.00	225.94
661.00	216.08
662.00	213.61
663.00	214.01
664.00	235.32
665.00	228.77
666.00	223.15
667.00	220.87
668.00	226.13
669.00	223.84
670.00	221.32
671.00	219.34
672.00	216.16
673.00	219.99
674.00	216.05
675.00	242.48
676.00	250.08
677.00	223.30
678.00	215.71
679.00	212.86
680.00	211.67
681.00	213.63
682.00	221.46
683.00	214.01
684.00	217.08
685.00	217.22
686.00	213.56
687.00	231.45
688.00	230.10
689.00	220.89
690.00	217.32
691.00	216.85
692.00	216.17
693.00	214.99
694.00	231.42
695.00	224.99
696.00	251.01
697.00	348.41
698.00	249.66
699.00	232.56
700.00	216.19
701.00	214.30
702.00	216.80
703.00	239.65
704.00	234.51
705.00	221.19
706.00	214.05
707.00	296.31
708.00	242.61
709.00	221.88
710.00	213.54
711.00	216.04
712.00	214.36
713.00	211.99
714.00	205.91
715.00	223.37
716.00	220.82
717.00	209.73
718.00	211.82
719.00	209.89
720.00	212.14
721.00	221.00
722.00	215.14
723.00	212.19
724.00	217.57
725.00	231.27
726.00	210.08
727.00	224.50
728.00	236.38
729.00	218.92
730.00	213.35
731.00	214.97
732.00	214.71
733.00	213.67
734.00	214.75
735.00	215.30
736.00	215.98
737.00	233.32
738.00	271.63
739.00	334.79
740.00	250.65
741.00	222.06
742.00	212.03
743.00	215.04
744.00	216.09
745.00	223.62
746.00	210.51
747.00	207.06
748.00	209.51
749.00	215.26
750.00	256.07
751.00	541.08
752.00	451.50
753.00	295.36
754.00	233.42
755.00	210.69
756.00	209.19
757.00	212.57
758.00	212.45
759.00	214.37
760.00	210.92
761.00	210.49
762.00	215.41
763.00	241.91
764.00	798.28
765.00	455.38
766.00	290.37
767.00	217.56
768.00	211.62
769.00	206.00
770.00	204.92
771.00	207.64
772.00	216.34
773.00	338.44
774.00	254.38
775.00	231.34
776.00	209.30
777.00	217.51
778.00	270.05
779.00	230.97
780.00	215.13
781.00	208.33
782.00	207.36
783.00	205.56
784.00	203.70
785.00	209.77
786.00	206.29
787.00	210.77
788.00	216.27
789.00	211.97
790.00	216.94
791.00	210.23
792.00	208.40
793.00	204.73
794.00	208.90
795.00	298.08
796.00	307.78
797.00	242.06
798.00	223.29
799.00	208.88
800.00	208.04
801.00	289.90
802.00	399.30
803.00	297.89
804.00	235.08
805.00	215.07
806.00	215.22
807.00	206.94
808.00	210.99
809.00	212.19
810.00	218.53
811.00	383.25
812.00	1562.21
813.00	946.45
814.00	452.76
815.00	296.18
816.00	219.69
817.00	211.62
818.00	204.70
819.00	209.66
820.00	203.88
821.00	205.86
822.00	207.46
823.00	208.87
824.00	206.19
825.00	215.19
826.00	206.64
827.00	264.56
828.00	235.89
829.00	217.93
830.00	209.55
831.00	209.83
832.00	205.28
833.00	209.77
834.00	207.36
835.00	210.16
836.00	208.66
837.00	205.58
838.00	206.13
839.00	205.69
840.00	210.15
841.00	253.00
842.00	276.15
843.00	399.50
844.00	303.90
845.00	248.94
846.00	227.03
847.00	211.97
848.00	204.86
849.00	205.59
850.00	204.75
851.00	202.27
852.00	215.16
853.00	250.96
854.00	214.90
855.00	215.16
856.00	216.81
857.00	203.89
858.00	201.60
859.00	205.29
860.00	203.71
861.00	214.63
862.00	204.01
863.00	204.54
864.00	210.07
865.00	208.77
866.00	206.10
867.00	208.33
868.00	212.00
869.00	206.47
870.00	208.77
871.00	206.07
872.00	212.19
873.00	210.10
874.00	205.34
875.00	202.31
876.00	206.09
877.00	205.37
878.00	203.19
879.00	204.59
880.00	204.89
881.00	207.96
882.00	206.37
883.00	200.61
884.00	199.00
885.00	203.97
886.00	203.25
887.00	207.45
888.00	205.00
889.00	202.03
890.00	206.02
891.00	206.65
892.00	205.64
893.00	204.16
894.00	205.12
895.00	211.93
896.00	206.93
897.00	208.13
898.00	202.25
899.00	202.02
900.00	206.04
901.00	206.63
902.00	201.37
903.00	207.21
904.00	201.64
905.00	200.02
906.00	209.82
907.00	207.57
908.00	202.10
909.00	203.24
910.00	206.20
911.00	205.47
912.00	219.13
913.00	288.02
914.00	252.63
915.00	233.24
916.00	218.34
917.00	207.27
918.00	205.26
919.00	204.95
920.00	201.72
921.00	207.48
922.00	203.57
923.00	218.09
924.00	215.54
925.00	211.77
926.00	205.00
927.00	204.25
928.00	200.78
929.00	204.12
930.00	204.55
931.00	203.32
932.00	204.41
933.00	205.79
934.00	204.16
935.00	202.96
936.00	201.53
937.00	199.07
938.00	200.35
939.00	203.82
940.00	202.31
941.00	201.19
942.00	204.89
943.00	204.32
944.00	204.48
945.00	204.61
946.00	202.22
947.00	202.02
948.00	205.00
949.00	203.53
950.00	205.93
951.00	201.19
952.00	204.99
953.00	205.98
954.00	205.40
955.00	204.20
956.00	201.89
957.00	203.94
958.00	201.69
959.00	207.91
960.00	206.45
961.00	202.71
962.00	200.67
963.00	203.63
964.00	203.73
965.00	201.14
966.00	203.73
967.00	205.55
968.00	206.01
969.00	202.28
970.00	207.35
971.00	204.45
972.00	208.62
973.00	206.07
974.00	205.28
975.00	208.33
976.00	205.87
977.00	201.47
978.00	199.60
979.00	205.26
980.00	202.43
981.00	203.97
982.00	202.91
983.00	207.05
984.00	205.52
985.00	204.62
986.00	203.93
987.00	204.05
988.00	203.62
989.00	204.08
990.00	198.81
991.00	204.51
992.00	204.06
993.00	207.19
994.00	205.40
995.00	201.68
996.00	203.72
997.00	203.42
998.00	203.67
999.00	205.87
1000.00	200.14
>>>>>End Processed Spectral Data<<<<<
