SpectraSuite Data File
++++++++++++++++++++++++++++++++++++
Date: Tue Oct 18 14:45:26 CDT 2011
User: Helimak
Dark Spectrum Present: No
Reference Spectrum Present: No
Number of Sampled Component Spectra: 1
Spectrometers: USB2G37154
Integration Time (usec): 200000 (USB2G37154)
Spectra Averaged: 1 (USB2G37154)
Boxcar Smoothing: 0 (USB2G37154)
Correct for Electrical Dark: No (USB2G37154)
Strobe/Lamp Enabled: No (USB2G37154)
Correct for Detector Non-linearity: No (USB2G37154)
Correct for Stray Light: No (USB2G37154)
Number of Pixels in Processed Spectrum: 651
>>>>>Begin Processed Spectral Data<<<<<
350.00	197.61
351.00	207.17
352.00	205.68
353.00	203.47
354.00	206.02
355.00	202.29
356.00	202.86
357.00	200.21
358.00	206.95
359.00	205.93
360.00	206.21
361.00	212.57
362.00	204.91
363.00	204.85
364.00	206.82
365.00	201.81
366.00	201.79
367.00	204.84
368.00	205.53
369.00	207.36
370.00	208.01
371.00	209.18
372.00	208.36
373.00	214.03
374.00	213.32
375.00	214.58
376.00	208.66
377.00	214.56
378.00	216.30
379.00	217.97
380.00	219.69
381.00	217.04
382.00	220.67
383.00	221.99
384.00	220.78
385.00	225.11
386.00	227.99
387.00	227.34
388.00	223.95
389.00	217.22
390.00	215.68
391.00	222.33
392.00	223.18
393.00	223.29
394.00	230.38
395.00	219.96
396.00	223.05
397.00	219.85
398.00	217.03
399.00	228.43
400.00	238.41
401.00	247.83
402.00	249.74
403.00	258.66
404.00	264.51
405.00	249.16
406.00	256.02
407.00	260.82
408.00	241.28
409.00	242.45
410.00	243.16
411.00	229.67
412.00	238.08
413.00	230.83
414.00	233.38
415.00	277.69
416.00	261.08
417.00	246.35
418.00	270.82
419.00	349.92
420.00	298.31
421.00	250.09
422.00	266.90
423.00	253.81
424.00	246.99
425.00	320.20
426.00	361.47
427.00	356.62
428.00	284.85
429.00	282.01
430.00	272.88
431.00	256.09
432.00	291.82
433.00	339.67
434.00	594.81
435.00	409.34
436.00	312.68
437.00	300.08
438.00	262.99
439.00	306.10
440.00	280.57
441.00	284.17
442.00	430.12
443.00	325.23
444.00	257.67
445.00	236.95
446.00	235.24
447.00	251.84
448.00	254.38
449.00	237.05
450.00	263.39
451.00	261.92
452.00	255.48
453.00	264.93
454.00	312.80
455.00	277.19
456.00	273.05
457.00	301.98
458.00	370.07
459.00	323.32
460.00	427.33
461.00	342.65
462.00	276.03
463.00	255.03
464.00	253.02
465.00	288.68
466.00	261.75
467.00	245.65
468.00	251.13
469.00	254.15
470.00	257.95
471.00	252.43
472.00	304.50
473.00	313.21
474.00	268.65
475.00	259.03
476.00	314.27
477.00	265.20
478.00	246.12
479.00	257.42
480.00	474.35
481.00	320.45
482.00	267.53
483.00	252.41
484.00	296.13
485.00	326.68
486.00	328.02
487.00	575.48
488.00	496.33
489.00	341.61
490.00	284.17
491.00	273.46
492.00	274.40
493.00	284.77
494.00	263.46
495.00	261.49
496.00	306.05
497.00	278.14
498.00	265.22
499.00	264.18
500.00	298.42
501.00	328.74
502.00	277.03
503.00	263.44
504.00	283.53
505.00	297.83
506.00	306.51
507.00	298.83
508.00	298.46
509.00	274.95
510.00	267.06
511.00	265.03
512.00	256.75
513.00	267.49
514.00	308.59
515.00	275.45
516.00	280.61
517.00	259.53
518.00	277.71
519.00	269.21
520.00	258.21
521.00	257.23
522.00	261.39
523.00	247.48
524.00	253.26
525.00	265.16
526.00	256.78
527.00	251.57
528.00	249.72
529.00	248.38
530.00	248.26
531.00	249.30
532.00	259.77
533.00	262.50
534.00	266.07
535.00	275.97
536.00	260.65
537.00	272.58
538.00	264.22
539.00	258.81
540.00	259.77
541.00	256.95
542.00	264.76
543.00	259.98
544.00	265.56
545.00	272.63
546.00	265.89
547.00	282.19
548.00	265.95
549.00	301.09
550.00	297.50
551.00	271.95
552.00	268.39
553.00	260.88
554.00	256.72
555.00	273.83
556.00	282.97
557.00	277.24
558.00	248.87
559.00	250.86
560.00	275.80
561.00	261.60
562.00	242.88
563.00	237.71
564.00	251.10
565.00	267.29
566.00	258.51
567.00	263.29
568.00	264.13
569.00	264.59
570.00	258.00
571.00	256.49
572.00	241.38
573.00	245.94
574.00	256.91
575.00	240.89
576.00	239.94
577.00	247.57
578.00	244.16
579.00	245.29
580.00	245.63
581.00	239.39
582.00	239.35
583.00	245.18
584.00	243.05
585.00	242.64
586.00	244.63
587.00	243.98
588.00	260.26
589.00	271.61
590.00	249.11
591.00	253.49
592.00	243.55
593.00	248.21
594.00	248.01
595.00	236.51
596.00	234.13
597.00	239.33
598.00	239.22
599.00	246.31
600.00	249.94
601.00	257.04
602.00	255.55
603.00	353.34
604.00	316.37
605.00	278.72
606.00	265.53
607.00	238.57
608.00	227.27
609.00	231.94
610.00	248.36
611.00	271.31
612.00	261.66
613.00	242.01
614.00	239.38
615.00	243.61
616.00	243.25
617.00	272.95
618.00	241.08
619.00	250.42
620.00	234.74
621.00	256.53
622.00	237.68
623.00	224.48
624.00	241.43
625.00	248.05
626.00	239.71
627.00	239.91
628.00	243.44
629.00	241.65
630.00	247.87
631.00	245.34
632.00	228.78
633.00	227.71
634.00	225.98
635.00	226.04
636.00	224.11
637.00	234.44
638.00	228.26
639.00	228.26
640.00	235.14
641.00	242.00
642.00	263.08
643.00	240.91
644.00	230.93
645.00	231.93
646.00	242.11
647.00	234.52
648.00	234.32
649.00	228.32
650.00	225.90
651.00	223.42
652.00	222.74
653.00	224.73
654.00	226.25
655.00	232.15
656.00	335.67
657.00	308.83
658.00	249.99
659.00	224.81
660.00	221.72
661.00	224.95
662.00	214.62
663.00	219.37
664.00	245.97
665.00	236.74
666.00	224.32
667.00	225.71
668.00	234.40
669.00	229.08
670.00	221.44
671.00	224.71
672.00	221.19
673.00	226.04
674.00	220.06
675.00	256.24
676.00	264.59
677.00	231.25
678.00	220.94
679.00	217.92
680.00	218.99
681.00	220.06
682.00	220.37
683.00	214.47
684.00	222.12
685.00	219.68
686.00	213.01
687.00	236.91
688.00	235.32
689.00	234.46
690.00	218.99
691.00	218.70
692.00	219.58
693.00	217.15
694.00	238.47
695.00	225.05
696.00	259.01
697.00	391.52
698.00	266.81
699.00	237.44
700.00	226.19
701.00	219.92
702.00	221.67
703.00	254.79
704.00	246.64
705.00	224.47
706.00	221.01
707.00	327.18
708.00	255.52
709.00	228.28
710.00	213.43
711.00	221.59
712.00	219.58
713.00	211.33
714.00	216.90
715.00	230.88
716.00	223.30
717.00	216.04
718.00	208.77
719.00	208.22
720.00	209.39
721.00	220.39
722.00	211.94
723.00	215.08
724.00	217.60
725.00	234.01
726.00	216.03
727.00	232.68
728.00	247.96
729.00	225.31
730.00	212.18
731.00	216.21
732.00	214.38
733.00	210.96
734.00	211.71
735.00	217.45
736.00	226.97
737.00	244.73
738.00	289.11
739.00	372.11
740.00	259.48
741.00	223.92
742.00	214.03
743.00	211.04
744.00	224.10
745.00	218.74
746.00	214.03
747.00	207.74
748.00	208.68
749.00	215.46
750.00	274.40
751.00	653.07
752.00	529.02
753.00	318.66
754.00	235.33
755.00	213.13
756.00	216.89
757.00	211.40
758.00	215.17
759.00	214.05
760.00	211.89
761.00	209.52
762.00	212.78
763.00	247.88
764.00	1025.09
765.00	532.72
766.00	320.02
767.00	228.49
768.00	215.51
769.00	209.85
770.00	205.81
771.00	211.22
772.00	223.57
773.00	388.63
774.00	273.90
775.00	234.42
776.00	212.80
777.00	217.90
778.00	302.01
779.00	243.87
780.00	216.70
781.00	207.33
782.00	204.42
783.00	208.52
784.00	209.95
785.00	208.78
786.00	210.95
787.00	210.01
788.00	214.57
789.00	216.95
790.00	220.81
791.00	215.90
792.00	218.01
793.00	214.38
794.00	212.02
795.00	332.02
796.00	343.62
797.00	248.53
798.00	224.38
799.00	213.83
800.00	211.24
801.00	316.58
802.00	472.59
803.00	323.06
804.00	247.30
805.00	219.47
806.00	216.84
807.00	211.84
808.00	210.27
809.00	220.18
810.00	225.30
811.00	441.90
812.00	2012.89
813.00	1194.49
814.00	524.71
815.00	324.65
816.00	219.84
817.00	216.68
818.00	210.38
819.00	208.82
820.00	209.75
821.00	206.86
822.00	208.91
823.00	210.03
824.00	204.19
825.00	217.88
826.00	209.70
827.00	290.21
828.00	247.54
829.00	222.25
830.00	213.67
831.00	210.50
832.00	207.74
833.00	207.68
834.00	207.23
835.00	207.10
836.00	208.66
837.00	204.24
838.00	206.95
839.00	206.92
840.00	208.24
841.00	266.49
842.00	297.10
843.00	462.60
844.00	334.15
845.00	256.26
846.00	232.32
847.00	213.68
848.00	202.82
849.00	205.89
850.00	201.97
851.00	201.13
852.00	214.10
853.00	262.69
854.00	225.91
855.00	209.82
856.00	216.84
857.00	208.30
858.00	209.70
859.00	205.15
860.00	204.27
861.00	210.84
862.00	211.59
863.00	206.82
864.00	211.66
865.00	204.72
866.00	209.62
867.00	209.56
868.00	212.98
869.00	208.26
870.00	204.97
871.00	207.68
872.00	210.67
873.00	209.45
874.00	208.52
875.00	206.55
876.00	202.92
877.00	204.66
878.00	204.59
879.00	203.95
880.00	203.04
881.00	208.40
882.00	204.32
883.00	206.69
884.00	202.00
885.00	203.99
886.00	203.05
887.00	205.68
888.00	198.63
889.00	199.82
890.00	206.30
891.00	202.29
892.00	207.16
893.00	205.53
894.00	202.14
895.00	207.86
896.00	202.65
897.00	204.35
898.00	206.62
899.00	202.55
900.00	205.20
901.00	205.16
902.00	202.98
903.00	212.39
904.00	201.08
905.00	202.08
906.00	206.28
907.00	202.75
908.00	205.05
909.00	203.45
910.00	206.46
911.00	208.08
912.00	221.65
913.00	318.38
914.00	271.72
915.00	238.01
916.00	228.31
917.00	211.39
918.00	207.94
919.00	208.43
920.00	204.43
921.00	209.17
922.00	208.95
923.00	222.13
924.00	214.39
925.00	209.79
926.00	205.00
927.00	208.77
928.00	206.05
929.00	203.79
930.00	207.99
931.00	202.27
932.00	205.14
933.00	206.57
934.00	207.47
935.00	200.80
936.00	203.82
937.00	199.86
938.00	203.95
939.00	208.67
940.00	205.07
941.00	207.05
942.00	204.99
943.00	203.54
944.00	204.94
945.00	212.22
946.00	201.63
947.00	201.19
948.00	204.90
949.00	205.42
950.00	203.69
951.00	205.42
952.00	208.04
953.00	203.24
954.00	200.43
955.00	206.09
956.00	202.52
957.00	205.08
958.00	204.10
959.00	202.00
960.00	204.10
961.00	204.17
962.00	205.67
963.00	204.55
964.00	202.73
965.00	202.64
966.00	205.08
967.00	211.33
968.00	207.00
969.00	206.95
970.00	205.58
971.00	208.97
972.00	203.27
973.00	205.01
974.00	206.19
975.00	207.16
976.00	206.21
977.00	203.49
978.00	203.22
979.00	202.85
980.00	204.07
981.00	200.49
982.00	207.89
983.00	207.05
984.00	204.66
985.00	201.71
986.00	201.12
987.00	209.01
988.00	202.25
989.00	207.37
990.00	201.40
991.00	205.67
992.00	201.83
993.00	202.44
994.00	203.78
995.00	203.70
996.00	199.10
997.00	204.54
998.00	204.72
999.00	206.33
1000.00	204.87
>>>>>End Processed Spectral Data<<<<<
