SpectraSuite Data File
++++++++++++++++++++++++++++++++++++
Date: Tue Oct 18 14:47:31 CDT 2011
User: Helimak
Dark Spectrum Present: No
Reference Spectrum Present: No
Number of Sampled Component Spectra: 1
Spectrometers: USB2G37154
Integration Time (usec): 200000 (USB2G37154)
Spectra Averaged: 1 (USB2G37154)
Boxcar Smoothing: 0 (USB2G37154)
Correct for Electrical Dark: No (USB2G37154)
Strobe/Lamp Enabled: No (USB2G37154)
Correct for Detector Non-linearity: No (USB2G37154)
Correct for Stray Light: No (USB2G37154)
Number of Pixels in Processed Spectrum: 651
>>>>>Begin Processed Spectral Data<<<<<
350.00	202.78
351.00	198.00
352.00	199.84
353.00	205.00
354.00	201.78
355.00	206.39
356.00	207.51
357.00	202.12
358.00	210.73
359.00	206.26
360.00	206.20
361.00	209.41
362.00	211.99
363.00	208.43
364.00	204.60
365.00	209.18
366.00	209.93
367.00	207.82
368.00	208.05
369.00	208.22
370.00	210.03
371.00	214.77
372.00	220.98
373.00	215.87
374.00	212.31
375.00	219.38
376.00	222.20
377.00	222.72
378.00	224.53
379.00	229.56
380.00	234.04
381.00	230.03
382.00	236.49
383.00	238.90
384.00	248.62
385.00	248.34
386.00	242.02
387.00	246.09
388.00	236.08
389.00	228.88
390.00	227.54
391.00	239.03
392.00	248.44
393.00	248.27
394.00	262.76
395.00	243.70
396.00	241.04
397.00	240.17
398.00	241.02
399.00	248.47
400.00	280.33
401.00	302.70
402.00	290.19
403.00	306.47
404.00	322.45
405.00	293.33
406.00	321.07
407.00	344.02
408.00	282.61
409.00	287.35
410.00	299.95
411.00	260.04
412.00	279.12
413.00	272.04
414.00	255.57
415.00	355.30
416.00	316.13
417.00	288.43
418.00	330.40
419.00	506.34
420.00	403.52
421.00	301.96
422.00	346.92
423.00	311.57
424.00	292.07
425.00	438.81
426.00	535.66
427.00	541.46
428.00	389.70
429.00	361.74
430.00	338.74
431.00	306.80
432.00	381.42
433.00	492.63
434.00	1219.10
435.00	708.11
436.00	459.36
437.00	426.99
438.00	351.92
439.00	457.80
440.00	395.72
441.00	388.95
442.00	784.59
443.00	490.27
444.00	317.38
445.00	275.03
446.00	265.67
447.00	309.48
448.00	310.46
449.00	282.08
450.00	306.91
451.00	307.34
452.00	305.00
453.00	324.91
454.00	452.66
455.00	358.95
456.00	341.18
457.00	415.84
458.00	599.34
459.00	462.07
460.00	767.31
461.00	531.96
462.00	359.83
463.00	300.14
464.00	284.41
465.00	396.49
466.00	330.59
467.00	288.98
468.00	285.74
469.00	292.91
470.00	295.53
471.00	303.70
472.00	440.23
473.00	480.09
474.00	340.25
475.00	313.54
476.00	489.22
477.00	328.76
478.00	278.72
479.00	307.72
480.00	890.14
481.00	454.97
482.00	326.90
483.00	291.64
484.00	403.68
485.00	445.12
486.00	460.22
487.00	1176.81
488.00	919.00
489.00	495.75
490.00	361.82
491.00	328.07
492.00	326.19
493.00	352.30
494.00	301.20
495.00	304.64
496.00	444.37
497.00	345.16
498.00	303.87
499.00	299.01
500.00	403.21
501.00	472.27
502.00	350.07
503.00	317.80
504.00	350.69
505.00	389.18
506.00	406.61
507.00	384.59
508.00	361.68
509.00	334.60
510.00	306.02
511.00	298.07
512.00	300.19
513.00	325.65
514.00	443.23
515.00	353.10
516.00	333.93
517.00	295.51
518.00	340.74
519.00	319.13
520.00	284.27
521.00	295.36
522.00	310.32
523.00	285.92
524.00	291.46
525.00	311.75
526.00	300.36
527.00	286.54
528.00	283.70
529.00	277.97
530.00	280.09
531.00	283.52
532.00	291.61
533.00	300.88
534.00	304.01
535.00	319.54
536.00	314.53
537.00	316.10
538.00	302.49
539.00	296.27
540.00	297.52
541.00	299.52
542.00	308.08
543.00	302.79
544.00	309.64
545.00	331.05
546.00	331.07
547.00	327.38
548.00	316.78
549.00	387.54
550.00	364.08
551.00	334.95
552.00	314.44
553.00	308.67
554.00	296.25
555.00	338.80
556.00	351.66
557.00	325.13
558.00	287.01
559.00	285.08
560.00	323.28
561.00	296.48
562.00	283.57
563.00	269.61
564.00	281.10
565.00	315.61
566.00	302.22
567.00	299.95
568.00	303.09
569.00	298.05
570.00	291.93
571.00	284.79
572.00	269.00
573.00	277.83
574.00	292.92
575.00	261.31
576.00	268.61
577.00	277.52
578.00	279.80
579.00	268.29
580.00	272.87
581.00	260.04
582.00	254.48
583.00	269.10
584.00	267.14
585.00	260.55
586.00	264.66
587.00	273.05
588.00	304.98
589.00	335.10
590.00	280.72
591.00	277.99
592.00	271.69
593.00	280.08
594.00	268.00
595.00	255.77
596.00	250.75
597.00	263.91
598.00	264.88
599.00	274.51
600.00	279.15
601.00	288.30
602.00	292.51
603.00	491.40
604.00	422.99
605.00	341.00
606.00	313.22
607.00	262.66
608.00	247.89
609.00	251.70
610.00	284.05
611.00	350.27
612.00	318.79
613.00	272.21
614.00	265.89
615.00	275.21
616.00	274.00
617.00	359.77
618.00	288.98
619.00	267.77
620.00	258.69
621.00	288.45
622.00	272.64
623.00	248.67
624.00	279.20
625.00	283.64
626.00	271.03
627.00	265.92
628.00	259.48
629.00	269.11
630.00	278.17
631.00	280.69
632.00	253.03
633.00	246.47
634.00	235.68
635.00	239.95
636.00	249.45
637.00	246.90
638.00	250.51
639.00	248.38
640.00	254.84
641.00	272.99
642.00	312.44
643.00	262.90
644.00	255.79
645.00	251.13
646.00	255.10
647.00	252.43
648.00	254.66
649.00	250.12
650.00	237.54
651.00	236.03
652.00	237.31
653.00	241.06
654.00	249.45
655.00	241.48
656.00	473.83
657.00	411.51
658.00	309.98
659.00	251.22
660.00	245.48
661.00	237.56
662.00	227.38
663.00	227.33
664.00	289.48
665.00	279.83
666.00	244.27
667.00	242.07
668.00	262.11
669.00	265.33
670.00	239.42
671.00	227.62
672.00	232.47
673.00	235.02
674.00	226.34
675.00	299.35
676.00	318.38
677.00	247.26
678.00	228.91
679.00	226.25
680.00	225.01
681.00	221.02
682.00	225.87
683.00	228.30
684.00	227.68
685.00	224.75
686.00	227.84
687.00	274.74
688.00	263.03
689.00	261.24
690.00	229.71
691.00	223.73
692.00	230.19
693.00	229.51
694.00	269.42
695.00	251.02
696.00	308.02
697.00	561.37
698.00	321.79
699.00	250.24
700.00	233.66
701.00	228.17
702.00	227.66
703.00	288.51
704.00	271.48
705.00	242.19
706.00	229.25
707.00	446.32
708.00	305.55
709.00	246.08
710.00	222.98
711.00	230.96
712.00	224.37
713.00	224.76
714.00	220.09
715.00	252.17
716.00	238.30
717.00	224.19
718.00	214.87
719.00	213.81
720.00	221.10
721.00	232.51
722.00	223.98
723.00	229.25
724.00	221.93
725.00	247.16
726.00	221.14
727.00	249.94
728.00	281.21
729.00	236.70
730.00	225.40
731.00	224.68
732.00	224.56
733.00	219.06
734.00	219.02
735.00	227.69
736.00	258.31
737.00	278.39
738.00	370.62
739.00	531.43
740.00	320.93
741.00	251.21
742.00	227.09
743.00	227.03
744.00	236.36
745.00	237.76
746.00	219.32
747.00	214.46
748.00	221.13
749.00	227.83
750.00	342.26
751.00	1075.00
752.00	832.67
753.00	422.92
754.00	264.24
755.00	223.52
756.00	213.79
757.00	213.16
758.00	218.07
759.00	217.38
760.00	225.39
761.00	213.73
762.00	224.39
763.00	281.28
764.00	1802.24
765.00	840.81
766.00	433.47
767.00	249.16
768.00	220.20
769.00	212.53
770.00	214.16
771.00	210.84
772.00	241.16
773.00	533.56
774.00	330.03
775.00	258.63
776.00	214.80
777.00	236.60
778.00	400.07
779.00	285.51
780.00	236.56
781.00	213.55
782.00	209.56
783.00	208.68
784.00	213.76
785.00	211.80
786.00	215.18
787.00	220.80
788.00	212.60
789.00	224.99
790.00	226.57
791.00	222.48
792.00	219.21
793.00	215.42
794.00	218.01
795.00	446.61
796.00	472.97
797.00	285.58
798.00	244.51
799.00	218.60
800.00	214.13
801.00	416.09
802.00	710.72
803.00	438.92
804.00	284.10
805.00	234.39
806.00	226.90
807.00	211.81
808.00	222.16
809.00	223.41
810.00	240.69
811.00	649.54
812.00	3402.23
813.00	2009.13
814.00	780.44
815.00	413.51
816.00	234.19
817.00	219.87
818.00	213.33
819.00	212.81
820.00	208.91
821.00	208.92
822.00	209.96
823.00	208.51
824.00	206.15
825.00	212.95
826.00	219.33
827.00	365.53
828.00	287.65
829.00	239.15
830.00	221.93
831.00	210.49
832.00	204.31
833.00	207.93
834.00	212.97
835.00	209.29
836.00	205.07
837.00	209.48
838.00	205.33
839.00	213.99
840.00	210.96
841.00	324.82
842.00	383.94
843.00	692.16
844.00	447.48
845.00	306.32
846.00	259.38
847.00	219.57
848.00	204.94
849.00	205.38
850.00	208.07
851.00	209.65
852.00	228.86
853.00	319.84
854.00	237.41
855.00	221.89
856.00	218.63
857.00	204.88
858.00	213.73
859.00	205.20
860.00	206.06
861.00	212.77
862.00	211.93
863.00	205.67
864.00	213.19
865.00	207.51
866.00	204.37
867.00	216.26
868.00	217.02
869.00	210.56
870.00	206.87
871.00	204.22
872.00	209.02
873.00	211.50
874.00	205.70
875.00	207.56
876.00	206.10
877.00	206.86
878.00	204.01
879.00	203.20
880.00	208.86
881.00	203.14
882.00	203.90
883.00	201.24
884.00	202.00
885.00	204.86
886.00	205.14
887.00	205.32
888.00	205.08
889.00	205.17
890.00	204.28
891.00	208.48
892.00	208.53
893.00	202.57
894.00	205.33
895.00	211.59
896.00	200.90
897.00	206.07
898.00	201.59
899.00	204.81
900.00	209.07
901.00	206.34
902.00	204.77
903.00	210.14
904.00	202.86
905.00	204.14
906.00	208.67
907.00	209.52
908.00	206.42
909.00	205.52
910.00	209.50
911.00	206.12
912.00	237.49
913.00	427.27
914.00	330.62
915.00	275.45
916.00	249.24
917.00	226.40
918.00	206.27
919.00	205.41
920.00	214.36
921.00	207.35
922.00	208.09
923.00	240.00
924.00	226.78
925.00	220.40
926.00	214.01
927.00	210.83
928.00	202.42
929.00	207.27
930.00	205.62
931.00	202.76
932.00	205.36
933.00	208.30
934.00	204.88
935.00	201.09
936.00	203.92
937.00	204.00
938.00	206.58
939.00	205.73
940.00	205.06
941.00	205.36
942.00	205.93
943.00	203.38
944.00	204.55
945.00	206.06
946.00	201.83
947.00	206.97
948.00	205.42
949.00	203.19
950.00	203.27
951.00	205.21
952.00	203.03
953.00	208.30
954.00	202.94
955.00	205.32
956.00	203.35
957.00	204.84
958.00	205.11
959.00	198.91
960.00	201.31
961.00	201.63
962.00	200.20
963.00	203.86
964.00	203.58
965.00	204.06
966.00	203.28
967.00	211.43
968.00	210.93
969.00	212.28
970.00	208.36
971.00	204.93
972.00	202.26
973.00	208.18
974.00	205.24
975.00	205.28
976.00	206.52
977.00	197.92
978.00	207.82
979.00	206.75
980.00	201.05
981.00	206.04
982.00	203.29
983.00	203.74
984.00	204.79
985.00	202.92
986.00	204.48
987.00	203.08
988.00	206.24
989.00	203.03
990.00	203.64
991.00	203.06
992.00	205.65
993.00	204.50
994.00	204.77
995.00	202.34
996.00	207.51
997.00	203.90
998.00	203.38
999.00	207.59
1000.00	199.37
>>>>>End Processed Spectral Data<<<<<
