SpectraSuite Data File
++++++++++++++++++++++++++++++++++++
Date: Tue Oct 18 14:47:32 CDT 2011
User: Helimak
Dark Spectrum Present: No
Reference Spectrum Present: No
Number of Sampled Component Spectra: 1
Spectrometers: USB2G37154
Integration Time (usec): 200000 (USB2G37154)
Spectra Averaged: 1 (USB2G37154)
Boxcar Smoothing: 0 (USB2G37154)
Correct for Electrical Dark: No (USB2G37154)
Strobe/Lamp Enabled: No (USB2G37154)
Correct for Detector Non-linearity: No (USB2G37154)
Correct for Stray Light: No (USB2G37154)
Number of Pixels in Processed Spectrum: 651
>>>>>Begin Processed Spectral Data<<<<<
350.00	201.98
351.00	201.25
352.00	203.04
353.00	201.74
354.00	205.38
355.00	206.23
356.00	206.02
357.00	208.20
358.00	210.28
359.00	210.26
360.00	206.75
361.00	211.18
362.00	215.86
363.00	207.33
364.00	207.89
365.00	205.71
366.00	206.39
367.00	210.00
368.00	213.45
369.00	212.87
370.00	216.01
371.00	213.50
372.00	221.08
373.00	214.02
374.00	216.30
375.00	220.17
376.00	215.31
377.00	221.33
378.00	229.13
379.00	232.44
380.00	233.34
381.00	236.57
382.00	228.43
383.00	238.55
384.00	244.55
385.00	246.47
386.00	246.06
387.00	244.83
388.00	240.03
389.00	234.78
390.00	234.33
391.00	238.32
392.00	252.85
393.00	254.10
394.00	261.53
395.00	242.69
396.00	240.06
397.00	235.01
398.00	235.63
399.00	242.46
400.00	283.10
401.00	307.81
402.00	291.59
403.00	321.92
404.00	324.57
405.00	287.38
406.00	316.05
407.00	341.69
408.00	290.10
409.00	288.91
410.00	292.76
411.00	258.03
412.00	272.46
413.00	272.15
414.00	258.72
415.00	347.84
416.00	314.71
417.00	287.07
418.00	330.94
419.00	501.73
420.00	398.03
421.00	295.38
422.00	348.39
423.00	310.20
424.00	288.72
425.00	438.78
426.00	539.45
427.00	536.46
428.00	384.32
429.00	365.81
430.00	338.13
431.00	301.09
432.00	378.19
433.00	478.42
434.00	1192.89
435.00	705.60
436.00	451.14
437.00	418.16
438.00	340.76
439.00	445.59
440.00	383.52
441.00	378.58
442.00	777.58
443.00	480.54
444.00	316.09
445.00	269.83
446.00	270.89
447.00	313.65
448.00	300.68
449.00	282.09
450.00	311.62
451.00	307.79
452.00	306.86
453.00	328.42
454.00	441.75
455.00	357.59
456.00	341.24
457.00	416.42
458.00	580.80
459.00	468.71
460.00	764.52
461.00	533.65
462.00	359.42
463.00	305.76
464.00	288.38
465.00	397.26
466.00	329.73
467.00	289.36
468.00	286.56
469.00	293.90
470.00	293.88
471.00	294.71
472.00	427.99
473.00	468.19
474.00	340.11
475.00	320.43
476.00	468.50
477.00	333.86
478.00	283.58
479.00	308.70
480.00	878.79
481.00	463.94
482.00	327.94
483.00	294.76
484.00	413.54
485.00	443.53
486.00	462.42
487.00	1128.95
488.00	904.73
489.00	486.77
490.00	357.52
491.00	325.87
492.00	319.88
493.00	355.22
494.00	308.23
495.00	305.15
496.00	430.80
497.00	353.22
498.00	310.03
499.00	297.22
500.00	399.88
501.00	474.97
502.00	345.07
503.00	307.47
504.00	343.38
505.00	381.79
506.00	405.41
507.00	383.99
508.00	361.08
509.00	332.46
510.00	304.54
511.00	297.98
512.00	300.48
513.00	323.49
514.00	439.03
515.00	343.77
516.00	333.11
517.00	305.60
518.00	344.81
519.00	311.07
520.00	286.56
521.00	290.63
522.00	300.43
523.00	287.99
524.00	293.20
525.00	311.16
526.00	293.86
527.00	282.61
528.00	284.15
529.00	274.15
530.00	275.94
531.00	284.29
532.00	295.02
533.00	304.66
534.00	305.74
535.00	312.88
536.00	315.02
537.00	310.76
538.00	303.53
539.00	299.27
540.00	299.96
541.00	303.34
542.00	313.83
543.00	295.08
544.00	306.88
545.00	327.56
546.00	313.36
547.00	334.61
548.00	308.09
549.00	385.04
550.00	374.40
551.00	327.91
552.00	307.72
553.00	306.35
554.00	292.02
555.00	330.03
556.00	348.87
557.00	321.98
558.00	282.23
559.00	284.27
560.00	323.18
561.00	296.37
562.00	275.80
563.00	263.89
564.00	281.96
565.00	314.91
566.00	299.67
567.00	302.15
568.00	301.04
569.00	304.78
570.00	298.07
571.00	286.25
572.00	269.53
573.00	275.36
574.00	288.67
575.00	269.72
576.00	267.26
577.00	280.87
578.00	274.05
579.00	273.26
580.00	274.35
581.00	264.21
582.00	261.41
583.00	271.69
584.00	267.34
585.00	255.47
586.00	268.75
587.00	275.18
588.00	299.55
589.00	328.90
590.00	278.55
591.00	284.89
592.00	280.78
593.00	284.11
594.00	257.07
595.00	257.57
596.00	250.11
597.00	264.20
598.00	266.96
599.00	275.67
600.00	278.51
601.00	284.15
602.00	288.84
603.00	485.06
604.00	417.52
605.00	335.06
606.00	312.93
607.00	258.97
608.00	249.21
609.00	246.85
610.00	284.45
611.00	337.44
612.00	324.05
613.00	273.72
614.00	267.49
615.00	268.33
616.00	278.29
617.00	345.86
618.00	284.67
619.00	274.84
620.00	256.21
621.00	284.40
622.00	266.84
623.00	254.45
624.00	274.96
625.00	283.59
626.00	272.10
627.00	261.42
628.00	262.40
629.00	268.89
630.00	274.66
631.00	283.55
632.00	248.28
633.00	249.42
634.00	240.15
635.00	240.03
636.00	244.97
637.00	247.09
638.00	248.61
639.00	247.80
640.00	253.65
641.00	272.71
642.00	309.19
643.00	261.97
644.00	248.39
645.00	252.98
646.00	257.07
647.00	250.60
648.00	255.31
649.00	248.64
650.00	235.66
651.00	236.68
652.00	235.43
653.00	233.57
654.00	251.96
655.00	241.01
656.00	471.45
657.00	427.96
658.00	294.98
659.00	246.29
660.00	238.86
661.00	237.72
662.00	227.41
663.00	223.54
664.00	289.63
665.00	279.58
666.00	244.46
667.00	237.43
668.00	257.90
669.00	264.75
670.00	238.83
671.00	228.68
672.00	230.69
673.00	229.98
674.00	226.16
675.00	301.90
676.00	316.07
677.00	251.04
678.00	232.55
679.00	229.06
680.00	226.72
681.00	223.71
682.00	224.96
683.00	226.70
684.00	228.61
685.00	226.44
686.00	228.69
687.00	272.55
688.00	264.80
689.00	252.47
690.00	226.05
691.00	222.47
692.00	225.44
693.00	233.02
694.00	265.42
695.00	251.91
696.00	304.02
697.00	551.42
698.00	315.15
699.00	253.89
700.00	233.88
701.00	230.44
702.00	230.91
703.00	288.51
704.00	275.23
705.00	239.22
706.00	232.67
707.00	433.25
708.00	306.84
709.00	249.04
710.00	220.49
711.00	226.78
712.00	220.54
713.00	222.70
714.00	223.38
715.00	249.71
716.00	239.39
717.00	223.31
718.00	216.70
719.00	216.69
720.00	220.33
721.00	227.89
722.00	228.60
723.00	224.72
724.00	225.79
725.00	243.91
726.00	223.25
727.00	247.13
728.00	276.54
729.00	238.53
730.00	222.00
731.00	223.91
732.00	223.07
733.00	219.62
734.00	216.88
735.00	227.08
736.00	256.03
737.00	277.74
738.00	376.09
739.00	529.71
740.00	310.64
741.00	247.70
742.00	226.14
743.00	221.04
744.00	235.97
745.00	232.29
746.00	215.69
747.00	212.71
748.00	212.98
749.00	221.17
750.00	336.27
751.00	1080.81
752.00	807.33
753.00	416.68
754.00	265.77
755.00	223.67
756.00	214.25
757.00	216.26
758.00	218.94
759.00	217.66
760.00	217.90
761.00	218.35
762.00	225.61
763.00	286.70
764.00	1749.25
765.00	841.01
766.00	421.07
767.00	249.39
768.00	223.79
769.00	212.97
770.00	210.14
771.00	210.10
772.00	239.91
773.00	536.20
774.00	331.92
775.00	255.07
776.00	211.56
777.00	239.50
778.00	399.04
779.00	286.67
780.00	236.37
781.00	211.53
782.00	208.64
783.00	205.69
784.00	207.09
785.00	213.39
786.00	216.23
787.00	219.06
788.00	218.98
789.00	222.97
790.00	225.39
791.00	224.69
792.00	216.72
793.00	218.15
794.00	216.98
795.00	437.21
796.00	453.62
797.00	291.66
798.00	248.97
799.00	222.67
800.00	220.81
801.00	414.05
802.00	696.48
803.00	432.43
804.00	288.43
805.00	229.99
806.00	226.00
807.00	213.79
808.00	218.69
809.00	221.41
810.00	241.34
811.00	646.79
812.00	3334.53
813.00	1969.30
814.00	765.33
815.00	414.15
816.00	228.18
817.00	215.32
818.00	214.76
819.00	214.41
820.00	212.18
821.00	206.90
822.00	211.17
823.00	212.01
824.00	208.26
825.00	220.33
826.00	213.72
827.00	357.12
828.00	281.74
829.00	236.99
830.00	215.36
831.00	208.99
832.00	210.07
833.00	211.08
834.00	212.46
835.00	208.88
836.00	207.06
837.00	205.21
838.00	213.85
839.00	208.82
840.00	215.59
841.00	318.40
842.00	383.00
843.00	693.16
844.00	450.42
845.00	309.07
846.00	257.70
847.00	215.39
848.00	207.43
849.00	207.47
850.00	205.01
851.00	207.15
852.00	221.78
853.00	318.77
854.00	245.82
855.00	220.19
856.00	222.89
857.00	207.63
858.00	208.66
859.00	204.17
860.00	203.93
861.00	215.22
862.00	209.05
863.00	209.01
864.00	211.94
865.00	207.48
866.00	207.11
867.00	214.70
868.00	219.98
869.00	213.52
870.00	209.16
871.00	206.26
872.00	207.83
873.00	205.62
874.00	207.22
875.00	206.28
876.00	207.30
877.00	210.82
878.00	209.12
879.00	206.53
880.00	205.06
881.00	207.23
882.00	206.35
883.00	208.44
884.00	207.01
885.00	203.73
886.00	206.24
887.00	205.95
888.00	206.28
889.00	205.66
890.00	208.09
891.00	206.88
892.00	208.87
893.00	208.63
894.00	208.82
895.00	207.63
896.00	202.32
897.00	204.67
898.00	206.04
899.00	201.41
900.00	204.73
901.00	205.29
902.00	205.16
903.00	204.83
904.00	201.45
905.00	199.09
906.00	207.24
907.00	203.57
908.00	204.57
909.00	207.91
910.00	209.15
911.00	210.85
912.00	236.48
913.00	423.57
914.00	333.71
915.00	271.20
916.00	242.46
917.00	220.08
918.00	210.42
919.00	203.12
920.00	206.73
921.00	205.35
922.00	208.37
923.00	237.80
924.00	230.41
925.00	218.25
926.00	214.00
927.00	210.34
928.00	206.85
929.00	206.19
930.00	206.83
931.00	209.27
932.00	204.92
933.00	206.07
934.00	204.07
935.00	206.17
936.00	205.45
937.00	205.04
938.00	207.38
939.00	208.21
940.00	206.20
941.00	209.17
942.00	206.07
943.00	204.08
944.00	206.79
945.00	209.51
946.00	202.90
947.00	203.18
948.00	198.31
949.00	201.57
950.00	201.21
951.00	200.66
952.00	200.02
953.00	205.40
954.00	204.79
955.00	205.87
956.00	205.41
957.00	203.90
958.00	203.05
959.00	203.95
960.00	201.83
961.00	210.86
962.00	205.73
963.00	201.81
964.00	202.18
965.00	205.98
966.00	203.12
967.00	216.48
968.00	211.03
969.00	208.87
970.00	209.54
971.00	211.79
972.00	207.21
973.00	209.18
974.00	205.24
975.00	204.40
976.00	203.12
977.00	203.09
978.00	206.53
979.00	206.47
980.00	202.72
981.00	201.63
982.00	204.10
983.00	207.53
984.00	200.46
985.00	208.37
986.00	201.79
987.00	204.26
988.00	204.63
989.00	203.14
990.00	199.77
991.00	202.07
992.00	204.86
993.00	207.97
994.00	203.29
995.00	203.91
996.00	201.56
997.00	204.45
998.00	205.52
999.00	207.71
1000.00	204.05
>>>>>End Processed Spectral Data<<<<<
