SpectraSuite Data File
++++++++++++++++++++++++++++++++++++
Date: Tue Oct 18 14:30:41 CDT 2011
User: Helimak
Dark Spectrum Present: No
Reference Spectrum Present: No
Number of Sampled Component Spectra: 1
Spectrometers: USB2G37154
Integration Time (usec): 200000 (USB2G37154)
Spectra Averaged: 1 (USB2G37154)
Boxcar Smoothing: 0 (USB2G37154)
Correct for Electrical Dark: No (USB2G37154)
Strobe/Lamp Enabled: No (USB2G37154)
Correct for Detector Non-linearity: No (USB2G37154)
Correct for Stray Light: No (USB2G37154)
Number of Pixels in Processed Spectrum: 651
>>>>>Begin Processed Spectral Data<<<<<
350.00	201.67
351.00	208.15
352.00	202.34
353.00	203.16
354.00	204.47
355.00	210.02
356.00	209.25
357.00	210.46
358.00	212.65
359.00	213.24
360.00	204.41
361.00	205.51
362.00	212.79
363.00	210.95
364.00	210.69
365.00	211.77
366.00	211.44
367.00	214.08
368.00	213.84
369.00	210.80
370.00	215.99
371.00	223.85
372.00	227.85
373.00	223.69
374.00	217.39
375.00	225.23
376.00	228.45
377.00	233.12
378.00	233.93
379.00	233.26
380.00	244.56
381.00	240.30
382.00	244.71
383.00	245.47
384.00	266.04
385.00	261.22
386.00	259.99
387.00	256.57
388.00	249.75
389.00	240.60
390.00	239.69
391.00	250.29
392.00	268.75
393.00	268.35
394.00	275.63
395.00	253.06
396.00	257.84
397.00	248.40
398.00	249.75
399.00	268.56
400.00	316.14
401.00	342.94
402.00	323.23
403.00	350.58
404.00	363.36
405.00	307.35
406.00	366.09
407.00	399.40
408.00	310.97
409.00	314.75
410.00	340.31
411.00	279.26
412.00	307.92
413.00	293.37
414.00	268.08
415.00	388.67
416.00	344.44
417.00	299.32
418.00	363.83
419.00	580.33
420.00	447.36
421.00	322.32
422.00	421.62
423.00	355.49
424.00	316.14
425.00	496.90
426.00	655.87
427.00	677.11
428.00	447.83
429.00	400.09
430.00	376.72
431.00	323.93
432.00	453.11
433.00	624.53
434.00	1867.59
435.00	1024.40
436.00	592.67
437.00	525.36
438.00	401.39
439.00	574.86
440.00	487.38
441.00	470.75
442.00	1143.26
443.00	644.91
444.00	374.54
445.00	291.81
446.00	287.02
447.00	361.56
448.00	345.59
449.00	304.23
450.00	326.76
451.00	324.71
452.00	317.15
453.00	368.90
454.00	552.63
455.00	408.54
456.00	374.56
457.00	500.23
458.00	785.19
459.00	582.12
460.00	1122.35
461.00	725.99
462.00	413.73
463.00	333.91
464.00	308.71
465.00	487.46
466.00	376.02
467.00	306.07
468.00	299.60
469.00	311.81
470.00	314.18
471.00	323.97
472.00	546.22
473.00	620.37
474.00	389.08
475.00	355.75
476.00	607.49
477.00	377.37
478.00	297.43
479.00	337.29
480.00	1316.76
481.00	601.87
482.00	364.80
483.00	308.77
484.00	505.30
485.00	527.32
486.00	528.36
487.00	1704.06
488.00	1313.12
489.00	623.68
490.00	402.27
491.00	345.84
492.00	353.55
493.00	403.77
494.00	328.32
495.00	325.27
496.00	545.07
497.00	397.23
498.00	319.44
499.00	311.27
500.00	489.75
501.00	597.05
502.00	406.10
503.00	328.45
504.00	358.45
505.00	427.10
506.00	470.50
507.00	416.88
508.00	395.37
509.00	363.00
510.00	323.62
511.00	316.94
512.00	321.51
513.00	356.37
514.00	536.33
515.00	390.95
516.00	350.60
517.00	319.86
518.00	362.03
519.00	335.75
520.00	293.49
521.00	304.10
522.00	321.60
523.00	297.87
524.00	301.08
525.00	323.03
526.00	306.41
527.00	294.34
528.00	297.49
529.00	288.55
530.00	284.34
531.00	294.29
532.00	303.76
533.00	321.15
534.00	318.08
535.00	339.65
536.00	323.35
537.00	326.01
538.00	319.09
539.00	318.14
540.00	312.91
541.00	316.56
542.00	325.13
543.00	314.37
544.00	323.10
545.00	351.73
546.00	338.15
547.00	350.96
548.00	325.48
549.00	415.00
550.00	399.81
551.00	349.83
552.00	332.72
553.00	315.34
554.00	305.20
555.00	353.96
556.00	378.40
557.00	346.67
558.00	300.90
559.00	296.83
560.00	342.37
561.00	312.99
562.00	287.72
563.00	279.84
564.00	291.55
565.00	335.94
566.00	304.64
567.00	308.07
568.00	320.00
569.00	316.76
570.00	309.79
571.00	302.46
572.00	272.83
573.00	285.35
574.00	313.45
575.00	280.65
576.00	271.26
577.00	291.61
578.00	282.14
579.00	275.32
580.00	281.50
581.00	265.42
582.00	259.78
583.00	284.05
584.00	271.06
585.00	265.10
586.00	274.22
587.00	273.17
588.00	312.32
589.00	344.34
590.00	288.80
591.00	297.92
592.00	288.38
593.00	301.72
594.00	275.03
595.00	262.97
596.00	260.72
597.00	267.06
598.00	278.33
599.00	280.47
600.00	295.30
601.00	293.37
602.00	303.60
603.00	540.66
604.00	457.54
605.00	360.16
606.00	327.47
607.00	271.15
608.00	258.63
609.00	260.83
610.00	300.90
611.00	396.08
612.00	367.10
613.00	283.56
614.00	277.72
615.00	280.63
616.00	286.71
617.00	402.78
618.00	310.83
619.00	264.19
620.00	270.33
621.00	297.83
622.00	276.34
623.00	254.81
624.00	299.07
625.00	298.51
626.00	278.01
627.00	272.23
628.00	272.50
629.00	277.08
630.00	294.47
631.00	289.86
632.00	259.63
633.00	251.32
634.00	244.68
635.00	249.03
636.00	247.98
637.00	252.23
638.00	257.71
639.00	254.40
640.00	268.37
641.00	283.65
642.00	331.26
643.00	271.57
644.00	256.09
645.00	256.18
646.00	265.03
647.00	255.30
648.00	262.82
649.00	256.56
650.00	245.28
651.00	241.26
652.00	240.87
653.00	246.51
654.00	252.60
655.00	248.32
656.00	508.26
657.00	462.47
658.00	327.96
659.00	261.79
660.00	250.80
661.00	243.35
662.00	229.70
663.00	229.50
664.00	333.51
665.00	323.17
666.00	257.26
667.00	248.26
668.00	273.51
669.00	287.09
670.00	244.01
671.00	228.67
672.00	239.31
673.00	237.99
674.00	235.23
675.00	322.28
676.00	345.99
677.00	258.70
678.00	231.46
679.00	233.96
680.00	227.40
681.00	232.65
682.00	228.35
683.00	222.24
684.00	228.36
685.00	231.26
686.00	232.30
687.00	292.24
688.00	276.53
689.00	270.72
690.00	233.14
691.00	231.06
692.00	225.30
693.00	234.61
694.00	278.75
695.00	266.86
696.00	333.03
697.00	647.21
698.00	351.66
699.00	263.61
700.00	237.94
701.00	231.97
702.00	232.29
703.00	308.34
704.00	286.76
705.00	241.63
706.00	239.66
707.00	502.97
708.00	334.73
709.00	259.31
710.00	223.20
711.00	241.05
712.00	230.89
713.00	226.67
714.00	227.75
715.00	263.35
716.00	245.16
717.00	226.67
718.00	223.12
719.00	217.57
720.00	218.99
721.00	226.27
722.00	225.63
723.00	233.77
724.00	224.56
725.00	243.03
726.00	227.27
727.00	256.55
728.00	298.84
729.00	246.27
730.00	226.36
731.00	225.92
732.00	225.77
733.00	224.55
734.00	218.02
735.00	230.40
736.00	265.66
737.00	292.36
738.00	418.91
739.00	622.50
740.00	341.10
741.00	258.36
742.00	231.02
743.00	229.99
744.00	248.19
745.00	233.20
746.00	218.01
747.00	215.77
748.00	219.39
749.00	229.64
750.00	382.85
751.00	1326.61
752.00	965.79
753.00	485.74
754.00	282.07
755.00	223.81
756.00	218.29
757.00	218.58
758.00	216.81
759.00	222.12
760.00	224.49
761.00	220.96
762.00	223.55
763.00	309.39
764.00	2220.24
765.00	1016.89
766.00	482.49
767.00	261.80
768.00	222.82
769.00	217.29
770.00	211.43
771.00	212.62
772.00	249.49
773.00	623.33
774.00	366.99
775.00	268.75
776.00	219.06
777.00	249.02
778.00	454.03
779.00	311.01
780.00	244.10
781.00	215.68
782.00	212.44
783.00	209.09
784.00	211.73
785.00	214.62
786.00	220.76
787.00	217.64
788.00	218.65
789.00	225.95
790.00	232.70
791.00	226.53
792.00	225.21
793.00	223.04
794.00	222.06
795.00	496.46
796.00	517.97
797.00	314.67
798.00	257.02
799.00	224.63
800.00	218.35
801.00	470.38
802.00	841.51
803.00	491.75
804.00	310.10
805.00	246.68
806.00	230.67
807.00	213.87
808.00	222.48
809.00	225.60
810.00	247.96
811.00	759.53
812.00	3919.89
813.00	2434.27
814.00	907.55
815.00	457.62
816.00	238.26
817.00	221.06
818.00	216.04
819.00	213.64
820.00	211.97
821.00	207.97
822.00	212.27
823.00	209.21
824.00	210.19
825.00	214.03
826.00	210.02
827.00	395.36
828.00	310.81
829.00	244.82
830.00	220.05
831.00	209.84
832.00	204.03
833.00	208.78
834.00	209.93
835.00	212.87
836.00	204.68
837.00	209.66
838.00	212.28
839.00	215.89
840.00	216.84
841.00	358.68
842.00	433.45
843.00	818.13
844.00	520.17
845.00	333.66
846.00	274.86
847.00	225.88
848.00	210.36
849.00	208.38
850.00	209.12
851.00	209.27
852.00	226.09
853.00	349.00
854.00	247.87
855.00	227.91
856.00	221.15
857.00	207.60
858.00	204.80
859.00	207.21
860.00	206.17
861.00	217.32
862.00	213.02
863.00	212.39
864.00	213.06
865.00	209.42
866.00	208.66
867.00	219.88
868.00	217.00
869.00	214.22
870.00	208.44
871.00	205.31
872.00	205.87
873.00	206.00
874.00	206.22
875.00	205.56
876.00	210.11
877.00	206.92
878.00	209.68
879.00	210.62
880.00	209.02
881.00	205.10
882.00	204.59
883.00	209.32
884.00	204.00
885.00	205.47
886.00	204.96
887.00	203.63
888.00	208.34
889.00	205.51
890.00	209.25
891.00	208.36
892.00	207.85
893.00	206.71
894.00	204.98
895.00	210.47
896.00	202.81
897.00	203.87
898.00	204.53
899.00	202.11
900.00	209.26
901.00	201.39
902.00	204.75
903.00	206.65
904.00	205.87
905.00	203.04
906.00	205.52
907.00	210.99
908.00	207.43
909.00	208.15
910.00	208.71
911.00	210.10
912.00	245.56
913.00	485.09
914.00	361.47
915.00	294.53
916.00	263.01
917.00	230.35
918.00	209.25
919.00	207.23
920.00	208.43
921.00	210.62
922.00	207.63
923.00	246.70
924.00	236.37
925.00	226.84
926.00	215.99
927.00	210.99
928.00	207.58
929.00	207.77
930.00	209.65
931.00	196.58
932.00	199.44
933.00	204.33
934.00	199.69
935.00	202.25
936.00	212.71
937.00	204.74
938.00	204.66
939.00	205.27
940.00	204.84
941.00	202.20
942.00	207.94
943.00	203.61
944.00	200.45
945.00	206.12
946.00	204.12
947.00	205.05
948.00	207.55
949.00	201.35
950.00	204.28
951.00	207.32
952.00	202.02
953.00	206.99
954.00	207.51
955.00	206.31
956.00	204.19
957.00	203.85
958.00	207.15
959.00	206.95
960.00	202.67
961.00	207.46
962.00	202.09
963.00	205.49
964.00	205.10
965.00	205.47
966.00	205.39
967.00	217.51
968.00	213.99
969.00	211.28
970.00	209.32
971.00	206.86
972.00	207.21
973.00	206.00
974.00	206.41
975.00	209.25
976.00	208.98
977.00	202.08
978.00	208.17
979.00	204.87
980.00	207.46
981.00	204.80
982.00	206.64
983.00	209.75
984.00	204.39
985.00	202.54
986.00	203.76
987.00	205.75
988.00	208.51
989.00	199.15
990.00	206.02
991.00	201.58
992.00	201.95
993.00	203.44
994.00	206.36
995.00	202.21
996.00	201.64
997.00	206.85
998.00	203.82
999.00	206.27
1000.00	203.76
>>>>>End Processed Spectral Data<<<<<
