SpectraSuite Data File
++++++++++++++++++++++++++++++++++++
Date: Tue Oct 18 14:40:14 CDT 2011
User: Helimak
Dark Spectrum Present: No
Reference Spectrum Present: No
Number of Sampled Component Spectra: 1
Spectrometers: USB2G37154
Integration Time (usec): 200000 (USB2G37154)
Spectra Averaged: 1 (USB2G37154)
Boxcar Smoothing: 0 (USB2G37154)
Correct for Electrical Dark: No (USB2G37154)
Strobe/Lamp Enabled: No (USB2G37154)
Correct for Detector Non-linearity: No (USB2G37154)
Correct for Stray Light: No (USB2G37154)
Number of Pixels in Processed Spectrum: 651
>>>>>Begin Processed Spectral Data<<<<<
350.00	202.15
351.00	204.71
352.00	202.55
353.00	205.88
354.00	200.85
355.00	204.46
356.00	207.91
357.00	203.33
358.00	205.95
359.00	202.93
360.00	208.63
361.00	203.44
362.00	207.32
363.00	204.04
364.00	207.98
365.00	202.01
366.00	201.80
367.00	205.98
368.00	205.97
369.00	206.69
370.00	202.13
371.00	208.30
372.00	211.82
373.00	206.72
374.00	210.77
375.00	210.86
376.00	211.37
377.00	210.70
378.00	213.81
379.00	216.08
380.00	218.19
381.00	216.30
382.00	213.15
383.00	216.99
384.00	214.47
385.00	215.84
386.00	214.00
387.00	221.80
388.00	215.54
389.00	211.49
390.00	211.18
391.00	217.30
392.00	220.03
393.00	220.65
394.00	228.68
395.00	218.60
396.00	214.98
397.00	215.46
398.00	217.57
399.00	220.94
400.00	224.71
401.00	238.28
402.00	240.26
403.00	244.21
404.00	245.49
405.00	233.63
406.00	237.01
407.00	243.30
408.00	233.91
409.00	233.26
410.00	232.38
411.00	226.65
412.00	224.52
413.00	223.38
414.00	224.11
415.00	258.59
416.00	240.81
417.00	237.91
418.00	254.07
419.00	311.45
420.00	278.83
421.00	242.55
422.00	248.84
423.00	240.88
424.00	239.60
425.00	285.21
426.00	314.23
427.00	314.49
428.00	263.30
429.00	268.45
430.00	259.94
431.00	242.68
432.00	266.79
433.00	299.38
434.00	457.36
435.00	336.96
436.00	279.73
437.00	275.72
438.00	257.26
439.00	273.74
440.00	261.55
441.00	265.40
442.00	355.79
443.00	282.13
444.00	243.34
445.00	234.11
446.00	233.32
447.00	238.08
448.00	237.14
449.00	232.03
450.00	252.28
451.00	247.72
452.00	244.98
453.00	253.01
454.00	280.50
455.00	255.74
456.00	258.35
457.00	282.59
458.00	316.39
459.00	286.42
460.00	353.02
461.00	298.03
462.00	259.27
463.00	245.51
464.00	239.41
465.00	272.40
466.00	254.80
467.00	235.50
468.00	241.91
469.00	245.31
470.00	244.42
471.00	241.75
472.00	274.44
473.00	282.77
474.00	246.57
475.00	244.73
476.00	289.14
477.00	246.75
478.00	236.02
479.00	245.07
480.00	386.08
481.00	287.04
482.00	251.50
483.00	245.87
484.00	266.52
485.00	286.00
486.00	303.64
487.00	455.03
488.00	397.75
489.00	299.51
490.00	267.96
491.00	261.88
492.00	254.11
493.00	264.80
494.00	249.58
495.00	248.53
496.00	281.14
497.00	268.16
498.00	251.18
499.00	249.77
500.00	271.40
501.00	287.72
502.00	259.02
503.00	249.04
504.00	266.80
505.00	278.73
506.00	288.16
507.00	275.79
508.00	277.42
509.00	267.00
510.00	253.50
511.00	249.00
512.00	245.76
513.00	250.63
514.00	284.59
515.00	263.00
516.00	253.56
517.00	248.42
518.00	266.19
519.00	259.95
520.00	245.24
521.00	245.74
522.00	248.31
523.00	242.59
524.00	244.12
525.00	257.42
526.00	249.90
527.00	246.46
528.00	241.26
529.00	242.60
530.00	235.21
531.00	241.97
532.00	246.84
533.00	254.87
534.00	254.38
535.00	260.17
536.00	252.50
537.00	256.80
538.00	253.29
539.00	252.45
540.00	246.14
541.00	243.80
542.00	254.66
543.00	249.68
544.00	253.90
545.00	260.27
546.00	252.83
547.00	266.16
548.00	252.17
549.00	274.00
550.00	270.91
551.00	265.98
552.00	257.48
553.00	250.57
554.00	246.30
555.00	262.46
556.00	277.14
557.00	254.33
558.00	242.13
559.00	243.80
560.00	262.65
561.00	251.48
562.00	236.09
563.00	237.54
564.00	237.03
565.00	252.18
566.00	242.25
567.00	248.61
568.00	256.11
569.00	253.36
570.00	252.21
571.00	251.15
572.00	237.47
573.00	238.33
574.00	246.06
575.00	239.20
576.00	231.23
577.00	232.18
578.00	238.53
579.00	239.54
580.00	239.69
581.00	235.13
582.00	228.23
583.00	245.36
584.00	231.38
585.00	235.67
586.00	237.78
587.00	235.04
588.00	250.35
589.00	257.76
590.00	237.70
591.00	242.25
592.00	241.12
593.00	241.89
594.00	234.03
595.00	223.67
596.00	227.87
597.00	230.07
598.00	231.37
599.00	233.93
600.00	237.83
601.00	240.03
602.00	245.44
603.00	308.31
604.00	283.12
605.00	261.10
606.00	253.32
607.00	235.78
608.00	225.95
609.00	222.89
610.00	236.93
611.00	241.48
612.00	240.27
613.00	228.74
614.00	232.55
615.00	232.63
616.00	230.79
617.00	252.00
618.00	239.71
619.00	241.31
620.00	228.68
621.00	240.17
622.00	234.47
623.00	230.02
624.00	234.67
625.00	238.89
626.00	234.05
627.00	232.62
628.00	235.66
629.00	237.28
630.00	243.99
631.00	238.89
632.00	228.23
633.00	221.20
634.00	218.26
635.00	215.99
636.00	219.30
637.00	224.77
638.00	225.46
639.00	224.47
640.00	233.92
641.00	234.28
642.00	250.91
643.00	228.22
644.00	227.22
645.00	228.82
646.00	237.08
647.00	230.05
648.00	226.77
649.00	224.95
650.00	221.16
651.00	218.38
652.00	219.20
653.00	221.73
654.00	225.99
655.00	225.68
656.00	299.01
657.00	287.05
658.00	234.98
659.00	217.99
660.00	224.17
661.00	218.59
662.00	213.44
663.00	212.26
664.00	236.72
665.00	230.59
666.00	221.73
667.00	218.80
668.00	228.12
669.00	224.88
670.00	218.06
671.00	214.88
672.00	213.18
673.00	219.00
674.00	222.93
675.00	244.43
676.00	246.07
677.00	220.86
678.00	212.88
679.00	214.32
680.00	213.27
681.00	214.75
682.00	216.60
683.00	212.23
684.00	221.63
685.00	216.15
686.00	209.94
687.00	231.28
688.00	228.04
689.00	218.81
690.00	217.44
691.00	214.59
692.00	212.11
693.00	217.51
694.00	226.17
695.00	222.00
696.00	251.01
697.00	345.60
698.00	253.79
699.00	222.29
700.00	216.72
701.00	218.00
702.00	214.03
703.00	239.28
704.00	234.69
705.00	221.32
706.00	216.19
707.00	303.34
708.00	247.93
709.00	218.97
710.00	214.67
711.00	216.49
712.00	213.13
713.00	213.41
714.00	213.68
715.00	221.42
716.00	216.65
717.00	216.07
718.00	207.45
719.00	212.14
720.00	212.23
721.00	215.14
722.00	212.68
723.00	217.31
724.00	215.75
725.00	229.32
726.00	212.51
727.00	224.93
728.00	233.62
729.00	214.74
730.00	215.06
731.00	217.23
732.00	212.31
733.00	211.57
734.00	210.52
735.00	215.75
736.00	225.47
737.00	231.28
738.00	268.57
739.00	327.99
740.00	247.37
741.00	221.94
742.00	211.99
743.00	217.94
744.00	215.02
745.00	223.80
746.00	204.09
747.00	208.44
748.00	209.52
749.00	212.80
750.00	256.63
751.00	530.46
752.00	447.68
753.00	298.18
754.00	228.08
755.00	212.01
756.00	210.00
757.00	211.44
758.00	212.53
759.00	213.36
760.00	205.86
761.00	209.28
762.00	216.49
763.00	244.34
764.00	794.38
765.00	450.34
766.00	286.75
767.00	223.11
768.00	213.30
769.00	209.54
770.00	207.91
771.00	205.90
772.00	217.49
773.00	339.41
774.00	255.38
775.00	225.96
776.00	211.32
777.00	214.58
778.00	267.03
779.00	232.05
780.00	211.74
781.00	204.99
782.00	208.20
783.00	209.48
784.00	207.36
785.00	208.74
786.00	208.22
787.00	214.57
788.00	210.12
789.00	215.99
790.00	217.63
791.00	211.17
792.00	207.05
793.00	208.63
794.00	213.12
795.00	298.39
796.00	301.88
797.00	240.13
798.00	222.89
799.00	215.17
800.00	210.61
801.00	285.68
802.00	390.84
803.00	294.46
804.00	233.93
805.00	213.75
806.00	207.58
807.00	210.23
808.00	214.15
809.00	210.42
810.00	220.93
811.00	383.10
812.00	1576.02
813.00	940.60
814.00	446.68
815.00	295.23
816.00	216.93
817.00	212.49
818.00	210.06
819.00	209.18
820.00	206.00
821.00	204.87
822.00	208.77
823.00	203.85
824.00	205.70
825.00	215.01
826.00	207.38
827.00	265.72
828.00	234.82
829.00	216.96
830.00	210.92
831.00	207.12
832.00	198.83
833.00	205.66
834.00	202.22
835.00	211.92
836.00	209.56
837.00	209.75
838.00	207.26
839.00	205.82
840.00	207.28
841.00	252.38
842.00	281.04
843.00	388.62
844.00	296.90
845.00	240.02
846.00	221.45
847.00	209.58
848.00	204.94
849.00	201.81
850.00	201.92
851.00	202.77
852.00	212.68
853.00	248.22
854.00	217.97
855.00	215.44
856.00	212.66
857.00	199.78
858.00	203.86
859.00	206.11
860.00	205.28
861.00	208.97
862.00	204.87
863.00	202.72
864.00	208.99
865.00	202.53
866.00	204.07
867.00	209.90
868.00	214.02
869.00	207.58
870.00	204.75
871.00	204.49
872.00	205.07
873.00	205.92
874.00	205.44
875.00	205.10
876.00	204.21
877.00	206.48
878.00	204.31
879.00	202.91
880.00	205.07
881.00	200.51
882.00	205.59
883.00	204.48
884.00	205.00
885.00	205.50
886.00	204.66
887.00	203.79
888.00	201.12
889.00	209.35
890.00	205.37
891.00	207.11
892.00	204.02
893.00	201.83
894.00	207.42
895.00	203.86
896.00	206.71
897.00	202.55
898.00	203.92
899.00	200.34
900.00	206.84
901.00	201.48
902.00	203.98
903.00	210.53
904.00	205.26
905.00	198.14
906.00	207.66
907.00	203.58
908.00	206.13
909.00	202.62
910.00	207.52
911.00	206.05
912.00	215.57
913.00	285.36
914.00	253.01
915.00	230.77
916.00	223.99
917.00	210.61
918.00	204.01
919.00	203.96
920.00	205.27
921.00	210.52
922.00	206.08
923.00	214.93
924.00	211.99
925.00	215.15
926.00	206.01
927.00	208.26
928.00	202.46
929.00	207.58
930.00	206.32
931.00	204.24
932.00	202.12
933.00	204.06
934.00	189.85
935.00	201.39
936.00	201.18
937.00	201.05
938.00	204.49
939.00	205.97
940.00	202.39
941.00	201.40
942.00	205.02
943.00	206.33
944.00	202.37
945.00	213.37
946.00	205.02
947.00	202.94
948.00	204.45
949.00	204.32
950.00	204.07
951.00	204.86
952.00	203.08
953.00	203.03
954.00	204.87
955.00	202.70
956.00	204.62
957.00	204.40
958.00	203.05
959.00	204.95
960.00	201.38
961.00	203.60
962.00	201.04
963.00	202.74
964.00	204.41
965.00	200.12
966.00	205.14
967.00	208.26
968.00	209.98
969.00	202.87
970.00	208.47
971.00	205.23
972.00	205.15
973.00	207.07
974.00	210.48
975.00	202.04
976.00	206.90
977.00	200.70
978.00	203.95
979.00	201.16
980.00	205.37
981.00	199.89
982.00	206.04
983.00	206.69
984.00	202.22
985.00	209.61
986.00	200.44
987.00	204.21
988.00	202.85
989.00	205.49
990.00	204.64
991.00	206.49
992.00	201.31
993.00	208.82
994.00	203.54
995.00	200.18
996.00	207.52
997.00	204.59
998.00	202.70
999.00	202.42
1000.00	198.96
>>>>>End Processed Spectral Data<<<<<
