SpectraSuite Data File
++++++++++++++++++++++++++++++++++++
Date: Tue Oct 18 14:51:56 CDT 2011
User: Helimak
Dark Spectrum Present: No
Reference Spectrum Present: No
Number of Sampled Component Spectra: 1
Spectrometers: USB2G37154
Integration Time (usec): 200000 (USB2G37154)
Spectra Averaged: 1 (USB2G37154)
Boxcar Smoothing: 0 (USB2G37154)
Correct for Electrical Dark: No (USB2G37154)
Strobe/Lamp Enabled: No (USB2G37154)
Correct for Detector Non-linearity: No (USB2G37154)
Correct for Stray Light: No (USB2G37154)
Number of Pixels in Processed Spectrum: 651
>>>>>Begin Processed Spectral Data<<<<<
350.00	204.37
351.00	202.59
352.00	202.10
353.00	204.34
354.00	201.85
355.00	204.18
356.00	206.19
357.00	201.62
358.00	210.93
359.00	204.84
360.00	207.13
361.00	207.29
362.00	206.18
363.00	201.25
364.00	209.76
365.00	205.92
366.00	206.27
367.00	205.96
368.00	203.24
369.00	206.90
370.00	207.03
371.00	205.92
372.00	206.33
373.00	208.00
374.00	207.62
375.00	213.60
376.00	208.34
377.00	207.82
378.00	220.76
379.00	215.37
380.00	215.23
381.00	222.51
382.00	222.66
383.00	219.61
384.00	227.77
385.00	222.55
386.00	228.96
387.00	227.73
388.00	221.27
389.00	219.77
390.00	216.18
391.00	218.07
392.00	226.36
393.00	221.30
394.00	230.65
395.00	222.10
396.00	223.92
397.00	218.28
398.00	224.02
399.00	230.26
400.00	238.24
401.00	248.60
402.00	248.81
403.00	259.82
404.00	254.17
405.00	246.40
406.00	249.03
407.00	257.21
408.00	239.66
409.00	246.70
410.00	245.23
411.00	232.38
412.00	235.22
413.00	233.06
414.00	236.57
415.00	286.50
416.00	266.18
417.00	248.99
418.00	269.62
419.00	345.94
420.00	301.25
421.00	248.96
422.00	266.58
423.00	254.33
424.00	247.87
425.00	320.27
426.00	359.32
427.00	351.52
428.00	294.44
429.00	286.52
430.00	274.78
431.00	256.67
432.00	293.94
433.00	334.22
434.00	603.50
435.00	415.95
436.00	309.87
437.00	291.03
438.00	267.58
439.00	305.77
440.00	289.70
441.00	285.13
442.00	425.05
443.00	320.36
444.00	260.53
445.00	241.93
446.00	241.26
447.00	257.24
448.00	253.26
449.00	245.85
450.00	261.48
451.00	266.93
452.00	262.56
453.00	265.96
454.00	314.04
455.00	291.24
456.00	283.03
457.00	306.88
458.00	370.15
459.00	330.63
460.00	437.34
461.00	348.63
462.00	281.20
463.00	259.62
464.00	254.39
465.00	296.24
466.00	272.67
467.00	255.56
468.00	255.15
469.00	260.25
470.00	260.04
471.00	262.16
472.00	312.02
473.00	318.14
474.00	275.22
475.00	264.86
476.00	320.24
477.00	263.84
478.00	251.86
479.00	261.38
480.00	468.56
481.00	327.57
482.00	274.66
483.00	262.37
484.00	300.86
485.00	331.14
486.00	339.40
487.00	590.52
488.00	497.63
489.00	344.74
490.00	290.93
491.00	281.30
492.00	276.91
493.00	286.71
494.00	269.63
495.00	269.77
496.00	316.64
497.00	279.55
498.00	263.99
499.00	268.42
500.00	302.14
501.00	329.78
502.00	285.01
503.00	277.35
504.00	294.16
505.00	312.44
506.00	317.82
507.00	311.84
508.00	303.23
509.00	285.84
510.00	274.13
511.00	269.96
512.00	272.05
513.00	274.56
514.00	315.11
515.00	283.78
516.00	280.77
517.00	265.35
518.00	284.55
519.00	273.02
520.00	263.46
521.00	256.83
522.00	267.15
523.00	254.43
524.00	255.69
525.00	279.46
526.00	267.49
527.00	257.71
528.00	255.12
529.00	255.43
530.00	252.79
531.00	256.08
532.00	262.48
533.00	273.71
534.00	271.22
535.00	283.93
536.00	278.68
537.00	278.01
538.00	274.89
539.00	266.92
540.00	267.81
541.00	266.88
542.00	268.72
543.00	271.21
544.00	271.23
545.00	289.79
546.00	279.14
547.00	292.55
548.00	272.94
549.00	303.75
550.00	300.79
551.00	285.89
552.00	274.73
553.00	270.86
554.00	274.55
555.00	278.25
556.00	287.77
557.00	273.37
558.00	256.70
559.00	249.84
560.00	277.27
561.00	260.80
562.00	245.97
563.00	251.85
564.00	250.89
565.00	271.06
566.00	263.88
567.00	274.27
568.00	267.96
569.00	269.28
570.00	271.68
571.00	269.48
572.00	251.82
573.00	252.22
574.00	264.57
575.00	246.43
576.00	244.07
577.00	250.78
578.00	254.36
579.00	249.15
580.00	246.35
581.00	243.88
582.00	241.50
583.00	246.88
584.00	246.09
585.00	240.52
586.00	246.53
587.00	244.05
588.00	261.98
589.00	276.53
590.00	252.91
591.00	260.79
592.00	246.05
593.00	249.48
594.00	249.02
595.00	239.93
596.00	233.75
597.00	242.16
598.00	245.55
599.00	254.07
600.00	250.19
601.00	266.28
602.00	261.69
603.00	361.62
604.00	325.38
605.00	279.09
606.00	269.28
607.00	241.61
608.00	235.08
609.00	243.86
610.00	253.52
611.00	275.22
612.00	257.69
613.00	246.84
614.00	244.06
615.00	245.24
616.00	242.84
617.00	271.92
618.00	248.01
619.00	248.38
620.00	239.31
621.00	257.49
622.00	239.99
623.00	232.56
624.00	248.34
625.00	249.74
626.00	245.84
627.00	247.99
628.00	242.42
629.00	238.68
630.00	248.53
631.00	253.11
632.00	236.19
633.00	234.26
634.00	228.32
635.00	225.10
636.00	231.88
637.00	240.07
638.00	232.47
639.00	231.19
640.00	242.16
641.00	246.08
642.00	267.18
643.00	239.97
644.00	229.92
645.00	240.33
646.00	236.93
647.00	238.20
648.00	239.35
649.00	229.88
650.00	228.38
651.00	226.91
652.00	223.56
653.00	226.30
654.00	231.81
655.00	232.70
656.00	345.32
657.00	322.48
658.00	256.99
659.00	228.72
660.00	228.13
661.00	225.19
662.00	218.25
663.00	213.95
664.00	243.96
665.00	240.32
666.00	228.49
667.00	225.66
668.00	238.72
669.00	234.59
670.00	222.91
671.00	222.88
672.00	224.87
673.00	222.97
674.00	225.03
675.00	255.09
676.00	269.99
677.00	230.29
678.00	217.89
679.00	217.76
680.00	215.35
681.00	219.19
682.00	223.49
683.00	216.15
684.00	225.79
685.00	222.77
686.00	217.95
687.00	238.55
688.00	231.69
689.00	230.97
690.00	220.21
691.00	214.01
692.00	221.02
693.00	221.03
694.00	240.49
695.00	235.99
696.00	264.01
697.00	402.62
698.00	267.97
699.00	232.40
700.00	228.89
701.00	225.54
702.00	224.28
703.00	251.43
704.00	249.16
705.00	227.84
706.00	220.92
707.00	332.83
708.00	264.79
709.00	234.00
710.00	212.78
711.00	219.80
712.00	220.37
713.00	218.26
714.00	214.09
715.00	232.65
716.00	222.22
717.00	216.15
718.00	210.53
719.00	216.57
720.00	214.32
721.00	219.58
722.00	214.98
723.00	217.16
724.00	221.91
725.00	237.20
726.00	215.58
727.00	231.21
728.00	254.09
729.00	225.05
730.00	212.77
731.00	219.80
732.00	220.78
733.00	215.93
734.00	209.57
735.00	219.33
736.00	236.68
737.00	244.56
738.00	296.77
739.00	374.12
740.00	267.59
741.00	226.34
742.00	214.02
743.00	217.98
744.00	221.98
745.00	219.22
746.00	210.43
747.00	208.68
748.00	216.01
749.00	219.60
750.00	279.85
751.00	659.92
752.00	532.32
753.00	324.68
754.00	236.61
755.00	211.26
756.00	213.51
757.00	213.79
758.00	218.57
759.00	213.46
760.00	215.67
761.00	212.84
762.00	212.28
763.00	254.27
764.00	1021.18
765.00	541.21
766.00	325.42
767.00	225.85
768.00	215.01
769.00	209.45
770.00	209.42
771.00	206.48
772.00	227.82
773.00	382.10
774.00	271.51
775.00	231.42
776.00	208.85
777.00	222.40
778.00	313.00
779.00	252.46
780.00	219.97
781.00	211.00
782.00	207.16
783.00	204.08
784.00	204.76
785.00	208.67
786.00	210.35
787.00	217.26
788.00	214.32
789.00	215.99
790.00	219.05
791.00	214.87
792.00	214.44
793.00	209.54
794.00	211.84
795.00	330.20
796.00	345.42
797.00	251.83
798.00	228.32
799.00	213.78
800.00	207.78
801.00	321.47
802.00	469.86
803.00	332.39
804.00	247.58
805.00	218.81
806.00	213.41
807.00	208.92
808.00	211.35
809.00	214.89
810.00	224.78
811.00	445.60
812.00	1998.81
813.00	1202.14
814.00	526.75
815.00	318.44
816.00	217.15
817.00	213.02
818.00	209.10
819.00	211.97
820.00	210.47
821.00	203.01
822.00	211.32
823.00	209.36
824.00	204.10
825.00	215.18
826.00	211.42
827.00	282.05
828.00	250.79
829.00	223.03
830.00	210.29
831.00	208.02
832.00	198.28
833.00	207.26
834.00	206.32
835.00	202.94
836.00	207.61
837.00	203.98
838.00	207.98
839.00	205.11
840.00	210.40
841.00	270.10
842.00	309.38
843.00	463.91
844.00	331.43
845.00	265.20
846.00	231.98
847.00	211.74
848.00	208.57
849.00	205.76
850.00	206.81
851.00	204.86
852.00	210.97
853.00	265.10
854.00	227.31
855.00	216.13
856.00	215.91
857.00	208.50
858.00	207.09
859.00	203.12
860.00	204.64
861.00	209.72
862.00	210.12
863.00	203.30
864.00	209.89
865.00	207.14
866.00	205.19
867.00	216.65
868.00	214.01
869.00	211.66
870.00	208.21
871.00	209.02
872.00	206.89
873.00	208.99
874.00	205.86
875.00	199.72
876.00	207.71
877.00	205.25
878.00	204.84
879.00	204.82
880.00	204.33
881.00	207.17
882.00	202.57
883.00	209.38
884.00	206.00
885.00	207.16
886.00	201.38
887.00	206.16
888.00	205.17
889.00	200.44
890.00	207.42
891.00	206.88
892.00	208.67
893.00	201.86
894.00	206.48
895.00	208.57
896.00	201.53
897.00	203.71
898.00	203.02
899.00	205.68
900.00	205.92
901.00	205.25
902.00	207.23
903.00	209.23
904.00	205.86
905.00	201.14
906.00	208.15
907.00	206.37
908.00	208.57
909.00	204.79
910.00	206.23
911.00	204.64
912.00	224.98
913.00	324.56
914.00	268.86
915.00	241.54
916.00	224.83
917.00	213.15
918.00	205.77
919.00	205.83
920.00	203.55
921.00	207.81
922.00	206.71
923.00	224.89
924.00	218.48
925.00	218.09
926.00	208.02
927.00	207.46
928.00	202.44
929.00	205.97
930.00	201.69
931.00	198.49
932.00	202.93
933.00	203.22
934.00	204.16
935.00	204.11
936.00	202.61
937.00	202.95
938.00	206.53
939.00	204.70
940.00	201.77
941.00	204.12
942.00	206.00
943.00	202.08
944.00	199.71
945.00	204.87
946.00	203.11
947.00	204.29
948.00	204.19
949.00	198.65
950.00	202.70
951.00	206.84
952.00	205.10
953.00	202.14
954.00	199.00
955.00	203.73
956.00	203.29
957.00	205.13
958.00	204.95
959.00	199.94
960.00	203.19
961.00	201.66
962.00	198.16
963.00	204.06
964.00	199.34
965.00	205.09
966.00	204.36
967.00	209.37
968.00	210.98
969.00	209.78
970.00	203.70
971.00	205.45
972.00	208.41
973.00	208.58
974.00	206.13
975.00	204.38
976.00	208.92
977.00	204.44
978.00	203.43
979.00	210.54
980.00	204.36
981.00	207.58
982.00	203.22
983.00	205.73
984.00	201.17
985.00	204.57
986.00	200.95
987.00	204.71
988.00	203.61
989.00	208.10
990.00	200.20
991.00	201.71
992.00	203.83
993.00	202.71
994.00	207.26
995.00	201.06
996.00	204.77
997.00	205.34
998.00	205.87
999.00	201.36
1000.00	201.75
>>>>>End Processed Spectral Data<<<<<
