SpectraSuite Data File
++++++++++++++++++++++++++++++++++++
Date: Tue Oct 18 14:26:37 CDT 2011
User: Helimak
Dark Spectrum Present: No
Reference Spectrum Present: No
Number of Sampled Component Spectra: 1
Spectrometers: USB2G37154
Integration Time (usec): 100000 (USB2G37154)
Spectra Averaged: 1 (USB2G37154)
Boxcar Smoothing: 0 (USB2G37154)
Correct for Electrical Dark: No (USB2G37154)
Strobe/Lamp Enabled: No (USB2G37154)
Correct for Detector Non-linearity: No (USB2G37154)
Correct for Stray Light: No (USB2G37154)
Number of Pixels in Processed Spectrum: 651
>>>>>Begin Processed Spectral Data<<<<<
350.00	198.66
351.00	202.89
352.00	197.92
353.00	199.58
354.00	202.28
355.00	206.65
356.00	203.32
357.00	203.39
358.00	205.28
359.00	202.02
360.00	200.42
361.00	203.51
362.00	203.27
363.00	202.44
364.00	203.17
365.00	204.02
366.00	203.16
367.00	204.00
368.00	203.90
369.00	201.72
370.00	205.00
371.00	201.10
372.00	199.91
373.00	200.07
374.00	204.54
375.00	205.94
376.00	201.71
377.00	203.21
378.00	202.99
379.00	203.49
380.00	202.02
381.00	204.65
382.00	205.53
383.00	205.59
384.00	206.51
385.00	204.93
386.00	203.99
387.00	202.94
388.00	203.20
389.00	206.86
390.00	204.68
391.00	204.85
392.00	206.14
393.00	203.70
394.00	205.23
395.00	204.37
396.00	203.94
397.00	201.20
398.00	203.74
399.00	208.14
400.00	205.41
401.00	202.29
402.00	205.39
403.00	204.19
404.00	204.79
405.00	205.96
406.00	205.00
407.00	207.65
408.00	201.57
409.00	205.55
410.00	203.59
411.00	205.30
412.00	206.04
413.00	206.87
414.00	207.55
415.00	207.69
416.00	205.28
417.00	204.76
418.00	206.19
419.00	202.37
420.00	205.20
421.00	203.57
422.00	207.05
423.00	206.54
424.00	206.58
425.00	206.18
426.00	204.02
427.00	210.91
428.00	205.24
429.00	207.27
430.00	201.27
431.00	204.54
432.00	206.96
433.00	206.60
434.00	201.17
435.00	204.88
436.00	206.37
437.00	207.98
438.00	204.40
439.00	196.95
440.00	209.56
441.00	208.32
442.00	202.29
443.00	204.47
444.00	209.43
445.00	205.83
446.00	206.26
447.00	205.41
448.00	207.38
449.00	200.03
450.00	202.63
451.00	204.26
452.00	204.97
453.00	203.73
454.00	202.99
455.00	205.30
456.00	202.34
457.00	204.69
458.00	205.23
459.00	207.78
460.00	205.33
461.00	205.16
462.00	208.45
463.00	204.35
464.00	207.35
465.00	208.70
466.00	207.41
467.00	200.16
468.00	204.05
469.00	204.15
470.00	206.56
471.00	207.64
472.00	210.02
473.00	201.85
474.00	205.48
475.00	202.46
476.00	209.14
477.00	204.05
478.00	205.83
479.00	202.77
480.00	204.59
481.00	206.07
482.00	203.30
483.00	200.59
484.00	202.72
485.00	203.31
486.00	204.04
487.00	206.05
488.00	207.03
489.00	207.99
490.00	204.30
491.00	207.86
492.00	202.25
493.00	204.96
494.00	205.27
495.00	200.67
496.00	205.52
497.00	201.60
498.00	205.52
499.00	204.49
500.00	203.13
501.00	202.93
502.00	202.99
503.00	205.28
504.00	206.88
505.00	203.63
506.00	201.80
507.00	204.77
508.00	204.31
509.00	202.15
510.00	204.02
511.00	201.98
512.00	206.12
513.00	206.45
514.00	206.26
515.00	205.54
516.00	202.07
517.00	208.94
518.00	206.41
519.00	211.50
520.00	205.24
521.00	207.84
522.00	207.15
523.00	204.47
524.00	201.33
525.00	204.08
526.00	203.78
527.00	204.17
528.00	206.27
529.00	204.89
530.00	203.86
531.00	203.02
532.00	204.94
533.00	205.33
534.00	202.98
535.00	202.99
536.00	202.99
537.00	206.02
538.00	204.03
539.00	202.93
540.00	205.04
541.00	202.95
542.00	203.11
543.00	203.22
544.00	203.12
545.00	202.21
546.00	208.89
547.00	202.19
548.00	199.46
549.00	202.18
550.00	209.05
551.00	207.00
552.00	207.85
553.00	202.90
554.00	204.46
555.00	201.04
556.00	201.68
557.00	203.06
558.00	205.48
559.00	202.78
560.00	205.29
561.00	199.68
562.00	200.87
563.00	202.71
564.00	204.35
565.00	203.42
566.00	205.00
567.00	203.80
568.00	202.07
569.00	200.96
570.00	207.71
571.00	210.99
572.00	200.82
573.00	201.56
574.00	200.20
575.00	201.04
576.00	203.84
577.00	203.83
578.00	203.59
579.00	203.82
580.00	199.42
581.00	203.98
582.00	199.80
583.00	204.37
584.00	203.48
585.00	202.47
586.00	204.42
587.00	204.04
588.00	201.64
589.00	204.44
590.00	205.06
591.00	203.45
592.00	203.80
593.00	203.63
594.00	205.01
595.00	200.25
596.00	208.50
597.00	207.72
598.00	204.52
599.00	202.19
600.00	202.28
601.00	205.13
602.00	202.13
603.00	203.64
604.00	204.50
605.00	204.60
606.00	204.51
607.00	203.27
608.00	203.60
609.00	203.06
610.00	201.24
611.00	207.46
612.00	208.06
613.00	207.25
614.00	200.35
615.00	201.07
616.00	203.68
617.00	201.97
618.00	206.28
619.00	199.80
620.00	201.68
621.00	205.51
622.00	200.51
623.00	201.92
624.00	201.86
625.00	198.06
626.00	204.00
627.00	205.52
628.00	203.47
629.00	205.63
630.00	202.74
631.00	205.98
632.00	202.02
633.00	205.54
634.00	202.91
635.00	204.94
636.00	204.03
637.00	200.03
638.00	204.26
639.00	205.63
640.00	207.10
641.00	204.79
642.00	200.09
643.00	207.69
644.00	201.64
645.00	202.73
646.00	203.04
647.00	200.78
648.00	203.92
649.00	203.25
650.00	205.46
651.00	203.34
652.00	203.75
653.00	203.25
654.00	206.06
655.00	205.52
656.00	203.55
657.00	203.82
658.00	203.00
659.00	200.25
660.00	202.25
661.00	207.63
662.00	203.50
663.00	204.30
664.00	207.07
665.00	205.49
666.00	202.08
667.00	209.17
668.00	207.36
669.00	202.88
670.00	200.05
671.00	200.80
672.00	202.83
673.00	205.00
674.00	205.83
675.00	202.75
676.00	205.63
677.00	202.05
678.00	206.12
679.00	201.48
680.00	202.63
681.00	204.71
682.00	206.95
683.00	204.01
684.00	209.02
685.00	211.62
686.00	202.95
687.00	208.04
688.00	206.33
689.00	204.72
690.00	205.45
691.00	204.50
692.00	198.52
693.00	205.62
694.00	201.92
695.00	203.99
696.00	204.00
697.00	205.05
698.00	204.06
699.00	199.58
700.00	203.68
701.00	198.40
702.00	200.66
703.00	200.94
704.00	205.33
705.00	196.95
706.00	205.99
707.00	202.81
708.00	204.30
709.00	201.72
710.00	206.26
711.00	201.74
712.00	200.89
713.00	204.96
714.00	203.12
715.00	200.63
716.00	202.35
717.00	202.33
718.00	205.19
719.00	206.47
720.00	208.62
721.00	205.36
722.00	202.91
723.00	204.72
724.00	203.71
725.00	214.69
726.00	206.03
727.00	200.51
728.00	201.34
729.00	204.41
730.00	202.92
731.00	205.50
732.00	207.97
733.00	200.96
734.00	202.22
735.00	204.83
736.00	197.98
737.00	203.40
738.00	205.52
739.00	206.59
740.00	202.85
741.00	200.93
742.00	201.02
743.00	206.01
744.00	199.94
745.00	206.69
746.00	201.31
747.00	200.49
748.00	201.42
749.00	206.45
750.00	203.77
751.00	202.68
752.00	202.64
753.00	204.40
754.00	207.64
755.00	206.62
756.00	200.60
757.00	202.00
758.00	204.75
759.00	206.72
760.00	204.83
761.00	202.59
762.00	203.63
763.00	204.98
764.00	201.97
765.00	206.97
766.00	200.13
767.00	203.16
768.00	199.86
769.00	203.80
770.00	201.05
771.00	203.21
772.00	201.89
773.00	205.96
774.00	202.76
775.00	201.88
776.00	203.49
777.00	202.93
778.00	205.00
779.00	208.86
780.00	205.05
781.00	202.57
782.00	200.93
783.00	202.51
784.00	202.39
785.00	203.88
786.00	204.15
787.00	207.57
788.00	203.18
789.00	205.01
790.00	208.07
791.00	202.80
792.00	204.65
793.00	202.33
794.00	201.53
795.00	202.10
796.00	203.16
797.00	200.43
798.00	197.75
799.00	202.97
800.00	202.26
801.00	201.80
802.00	204.95
803.00	207.52
804.00	202.91
805.00	198.27
806.00	205.01
807.00	201.03
808.00	201.85
809.00	202.54
810.00	204.29
811.00	199.65
812.00	205.14
813.00	202.39
814.00	202.05
815.00	203.03
816.00	201.93
817.00	200.56
818.00	205.37
819.00	204.69
820.00	202.56
821.00	202.96
822.00	202.95
823.00	205.69
824.00	203.81
825.00	207.17
826.00	203.76
827.00	200.31
828.00	203.91
829.00	206.92
830.00	207.50
831.00	202.31
832.00	203.90
833.00	203.85
834.00	202.77
835.00	205.16
836.00	203.26
837.00	203.81
838.00	200.64
839.00	202.01
840.00	204.19
841.00	204.69
842.00	204.36
843.00	206.19
844.00	204.96
845.00	206.00
846.00	201.93
847.00	204.56
848.00	206.90
849.00	200.85
850.00	204.77
851.00	201.78
852.00	202.75
853.00	201.69
854.00	206.35
855.00	204.24
856.00	209.24
857.00	203.68
858.00	204.79
859.00	203.00
860.00	202.77
861.00	204.53
862.00	205.58
863.00	202.75
864.00	206.20
865.00	201.60
866.00	203.95
867.00	202.43
868.00	201.99
869.00	204.46
870.00	202.45
871.00	202.57
872.00	201.25
873.00	203.48
874.00	204.32
875.00	205.50
876.00	206.71
877.00	201.65
878.00	206.10
879.00	199.43
880.00	202.95
881.00	202.48
882.00	202.06
883.00	203.41
884.00	202.00
885.00	202.44
886.00	202.10
887.00	206.09
888.00	203.29
889.00	200.63
890.00	202.50
891.00	203.00
892.00	208.39
893.00	201.44
894.00	200.82
895.00	201.86
896.00	203.53
897.00	199.71
898.00	202.76
899.00	202.93
900.00	203.50
901.00	204.16
902.00	204.39
903.00	202.83
904.00	201.90
905.00	203.84
906.00	205.97
907.00	202.66
908.00	204.30
909.00	201.82
910.00	203.16
911.00	201.99
912.00	200.00
913.00	208.85
914.00	202.90
915.00	204.20
916.00	204.82
917.00	198.81
918.00	206.17
919.00	205.26
920.00	206.71
921.00	203.77
922.00	200.25
923.00	200.79
924.00	202.98
925.00	203.43
926.00	205.00
927.00	204.71
928.00	201.63
929.00	202.34
930.00	200.73
931.00	201.71
932.00	202.36
933.00	202.48
934.00	199.93
935.00	205.22
936.00	201.46
937.00	200.90
938.00	204.85
939.00	207.36
940.00	205.65
941.00	205.43
942.00	205.00
943.00	203.95
944.00	199.68
945.00	203.09
946.00	201.05
947.00	202.94
948.00	201.72
949.00	205.49
950.00	199.43
951.00	206.16
952.00	201.96
953.00	200.59
954.00	200.69
955.00	206.95
956.00	205.19
957.00	205.98
958.00	202.84
959.00	205.00
960.00	205.87
961.00	205.81
962.00	205.96
963.00	203.36
964.00	206.66
965.00	204.07
966.00	203.08
967.00	203.81
968.00	201.95
969.00	199.76
970.00	200.81
971.00	205.23
972.00	203.49
973.00	206.43
974.00	201.81
975.00	208.54
976.00	204.27
977.00	201.17
978.00	204.51
979.00	198.34
980.00	202.92
981.00	204.77
982.00	202.60
983.00	208.95
984.00	202.70
985.00	205.35
986.00	202.16
987.00	204.68
988.00	206.48
989.00	204.39
990.00	202.06
991.00	202.69
992.00	201.30
993.00	205.02
994.00	204.42
995.00	205.23
996.00	203.68
997.00	200.98
998.00	200.98
999.00	201.35
1000.00	201.77
>>>>>End Processed Spectral Data<<<<<
