SpectraSuite Data File
++++++++++++++++++++++++++++++++++++
Date: Tue Oct 18 14:28:37 CDT 2011
User: Helimak
Dark Spectrum Present: No
Reference Spectrum Present: No
Number of Sampled Component Spectra: 1
Spectrometers: USB2G37154
Integration Time (usec): 200000 (USB2G37154)
Spectra Averaged: 1 (USB2G37154)
Boxcar Smoothing: 0 (USB2G37154)
Correct for Electrical Dark: No (USB2G37154)
Strobe/Lamp Enabled: No (USB2G37154)
Correct for Detector Non-linearity: No (USB2G37154)
Correct for Stray Light: No (USB2G37154)
Number of Pixels in Processed Spectrum: 651
>>>>>Begin Processed Spectral Data<<<<<
350.00	197.76
351.00	206.03
352.00	203.68
353.00	204.26
354.00	205.82
355.00	206.66
356.00	209.36
357.00	200.71
358.00	212.81
359.00	203.87
360.00	208.37
361.00	203.93
362.00	212.34
363.00	208.56
364.00	207.37
365.00	205.06
366.00	205.02
367.00	207.86
368.00	210.37
369.00	208.34
370.00	215.01
371.00	209.84
372.00	215.04
373.00	213.93
374.00	213.52
375.00	216.05
376.00	214.17
377.00	225.17
378.00	226.09
379.00	226.96
380.00	232.08
381.00	228.99
382.00	229.40
383.00	234.48
384.00	245.23
385.00	239.32
386.00	243.05
387.00	243.83
388.00	234.11
389.00	230.94
390.00	226.46
391.00	233.32
392.00	236.72
393.00	243.31
394.00	246.28
395.00	230.68
396.00	230.86
397.00	229.45
398.00	231.82
399.00	245.24
400.00	261.33
401.00	280.53
402.00	283.12
403.00	296.05
404.00	299.00
405.00	272.52
406.00	297.06
407.00	301.35
408.00	266.94
409.00	274.49
410.00	279.82
411.00	252.32
412.00	253.21
413.00	255.73
414.00	249.75
415.00	316.19
416.00	290.71
417.00	272.93
418.00	306.33
419.00	424.40
420.00	352.25
421.00	276.87
422.00	325.25
423.00	293.98
424.00	273.41
425.00	376.23
426.00	460.63
427.00	458.77
428.00	353.47
429.00	330.66
430.00	313.94
431.00	285.25
432.00	346.56
433.00	434.25
434.00	1011.16
435.00	618.53
436.00	402.93
437.00	378.43
438.00	315.20
439.00	402.46
440.00	360.11
441.00	355.35
442.00	659.93
443.00	432.46
444.00	300.15
445.00	259.74
446.00	255.87
447.00	292.42
448.00	285.32
449.00	276.01
450.00	288.26
451.00	288.05
452.00	285.00
453.00	309.26
454.00	394.86
455.00	333.25
456.00	320.43
457.00	381.38
458.00	494.60
459.00	413.93
460.00	636.04
461.00	461.46
462.00	326.15
463.00	291.44
464.00	273.20
465.00	357.09
466.00	313.05
467.00	280.44
468.00	277.24
469.00	281.33
470.00	277.40
471.00	282.96
472.00	388.35
473.00	424.21
474.00	326.09
475.00	301.97
476.00	406.16
477.00	305.44
478.00	270.35
479.00	293.03
480.00	749.99
481.00	430.76
482.00	309.08
483.00	283.82
484.00	380.42
485.00	401.19
486.00	420.08
487.00	958.33
488.00	766.70
489.00	444.39
490.00	336.83
491.00	311.59
492.00	315.93
493.00	337.33
494.00	298.18
495.00	298.83
496.00	399.29
497.00	325.45
498.00	293.69
499.00	285.13
500.00	374.48
501.00	425.23
502.00	329.04
503.00	295.57
504.00	322.57
505.00	351.93
506.00	376.32
507.00	357.29
508.00	343.37
509.00	319.87
510.00	300.78
511.00	301.00
512.00	289.44
513.00	308.88
514.00	402.04
515.00	324.43
516.00	318.62
517.00	293.08
518.00	319.25
519.00	298.58
520.00	273.81
521.00	281.69
522.00	287.65
523.00	278.22
524.00	280.03
525.00	291.99
526.00	290.50
527.00	274.43
528.00	276.48
529.00	269.34
530.00	271.94
531.00	278.79
532.00	289.58
533.00	298.55
534.00	309.56
535.00	312.85
536.00	307.11
537.00	300.12
538.00	299.01
539.00	293.81
540.00	287.40
541.00	287.86
542.00	296.14
543.00	299.78
544.00	300.82
545.00	308.98
546.00	308.72
547.00	320.66
548.00	299.12
549.00	353.24
550.00	336.17
551.00	311.88
552.00	300.39
553.00	295.55
554.00	289.53
555.00	313.38
556.00	328.60
557.00	306.53
558.00	276.90
559.00	274.89
560.00	299.57
561.00	289.17
562.00	270.04
563.00	268.01
564.00	277.17
565.00	297.82
566.00	289.23
567.00	288.28
568.00	300.81
569.00	296.70
570.00	289.78
571.00	283.23
572.00	263.49
573.00	266.59
574.00	285.36
575.00	258.17
576.00	261.56
577.00	274.17
578.00	270.14
579.00	270.02
580.00	258.65
581.00	258.05
582.00	256.09
583.00	259.81
584.00	256.37
585.00	254.22
586.00	259.02
587.00	266.93
588.00	295.96
589.00	306.28
590.00	271.65
591.00	274.04
592.00	265.79
593.00	271.63
594.00	258.04
595.00	240.61
596.00	248.87
597.00	255.31
598.00	261.94
599.00	266.93
600.00	274.42
601.00	278.11
602.00	280.65
603.00	424.80
604.00	382.29
605.00	314.67
606.00	299.94
607.00	257.23
608.00	249.11
609.00	247.86
610.00	268.27
611.00	314.75
612.00	299.42
613.00	262.94
614.00	255.58
615.00	262.31
616.00	265.65
617.00	321.89
618.00	270.35
619.00	262.99
620.00	247.18
621.00	275.03
622.00	259.51
623.00	243.08
624.00	267.64
625.00	280.66
626.00	269.12
627.00	266.76
628.00	253.96
629.00	265.04
630.00	272.56
631.00	274.22
632.00	246.93
633.00	244.27
634.00	232.72
635.00	233.94
636.00	239.77
637.00	248.12
638.00	245.69
639.00	248.66
640.00	252.40
641.00	265.40
642.00	296.32
643.00	260.89
644.00	246.49
645.00	244.02
646.00	253.04
647.00	254.58
648.00	252.36
649.00	250.58
650.00	235.90
651.00	230.39
652.00	233.17
653.00	236.04
654.00	246.05
655.00	238.10
656.00	424.05
657.00	378.24
658.00	286.98
659.00	238.31
660.00	243.37
661.00	238.57
662.00	224.31
663.00	221.41
664.00	282.36
665.00	272.74
666.00	242.36
667.00	235.53
668.00	255.04
669.00	252.51
670.00	236.45
671.00	226.87
672.00	230.40
673.00	229.00
674.00	227.23
675.00	279.44
676.00	290.31
677.00	243.38
678.00	233.56
679.00	222.25
680.00	224.08
681.00	225.50
682.00	223.60
683.00	222.42
684.00	225.75
685.00	227.39
686.00	222.45
687.00	263.61
688.00	255.67
689.00	248.36
690.00	226.04
691.00	226.09
692.00	229.96
693.00	226.45
694.00	261.90
695.00	244.04
696.00	296.02
697.00	508.94
698.00	303.35
699.00	247.48
700.00	231.62
701.00	236.68
702.00	231.15
703.00	277.39
704.00	265.86
705.00	239.82
706.00	230.42
707.00	398.68
708.00	294.64
709.00	241.59
710.00	219.49
711.00	227.03
712.00	224.84
713.00	224.76
714.00	217.86
715.00	243.63
716.00	236.73
717.00	219.46
718.00	217.67
719.00	215.97
720.00	215.61
721.00	220.44
722.00	221.22
723.00	224.17
724.00	235.68
725.00	244.76
726.00	222.56
727.00	243.15
728.00	268.26
729.00	230.69
730.00	219.18
731.00	220.83
732.00	225.11
733.00	218.62
734.00	215.41
735.00	221.59
736.00	249.74
737.00	263.44
738.00	339.43
739.00	468.11
740.00	292.45
741.00	237.47
742.00	223.07
743.00	223.01
744.00	227.97
745.00	227.67
746.00	212.10
747.00	214.42
748.00	215.85
749.00	223.73
750.00	319.36
751.00	901.54
752.00	698.27
753.00	390.13
754.00	256.08
755.00	219.33
756.00	213.54
757.00	214.43
758.00	218.06
759.00	216.09
760.00	219.15
761.00	218.81
762.00	221.36
763.00	279.12
764.00	1496.73
765.00	724.67
766.00	377.90
767.00	240.98
768.00	217.32
769.00	214.32
770.00	211.86
771.00	211.61
772.00	236.45
773.00	489.72
774.00	315.22
775.00	249.77
776.00	214.02
777.00	237.04
778.00	392.03
779.00	287.02
780.00	235.72
781.00	210.62
782.00	209.69
783.00	208.40
784.00	208.74
785.00	218.02
786.00	215.36
787.00	219.80
788.00	219.14
789.00	225.93
790.00	227.30
791.00	221.10
792.00	215.45
793.00	215.95
794.00	221.99
795.00	401.10
796.00	404.80
797.00	272.78
798.00	238.94
799.00	216.59
800.00	213.53
801.00	380.19
802.00	620.21
803.00	393.35
804.00	273.80
805.00	228.81
806.00	221.38
807.00	214.97
808.00	214.37
809.00	221.60
810.00	233.46
811.00	571.43
812.00	2912.32
813.00	1719.87
814.00	679.28
815.00	375.87
816.00	231.52
817.00	217.53
818.00	213.86
819.00	209.51
820.00	211.83
821.00	207.99
822.00	209.91
823.00	213.28
824.00	208.22
825.00	215.39
826.00	216.03
827.00	333.68
828.00	277.91
829.00	232.30
830.00	213.84
831.00	208.06
832.00	208.03
833.00	203.08
834.00	207.10
835.00	209.51
836.00	210.81
837.00	209.79
838.00	207.13
839.00	203.93
840.00	214.52
841.00	301.84
842.00	356.36
843.00	613.20
844.00	409.80
845.00	290.67
846.00	248.96
847.00	214.38
848.00	212.11
849.00	210.93
850.00	205.20
851.00	203.98
852.00	219.86
853.00	303.74
854.00	234.17
855.00	220.45
856.00	217.86
857.00	204.53
858.00	206.58
859.00	210.21
860.00	206.42
861.00	212.12
862.00	209.60
863.00	205.70
864.00	208.15
865.00	208.07
866.00	206.31
867.00	213.96
868.00	216.02
869.00	213.86
870.00	206.21
871.00	200.78
872.00	207.76
873.00	206.56
874.00	204.12
875.00	195.71
876.00	204.19
877.00	204.28
878.00	204.45
879.00	205.25
880.00	205.95
881.00	206.11
882.00	206.85
883.00	203.81
884.00	205.00
885.00	204.65
886.00	207.79
887.00	206.78
888.00	202.86
889.00	202.48
890.00	207.30
891.00	209.14
892.00	201.29
893.00	200.33
894.00	203.85
895.00	210.90
896.00	204.66
897.00	206.38
898.00	201.57
899.00	204.35
900.00	205.50
901.00	206.45
902.00	201.37
903.00	207.27
904.00	202.28
905.00	205.03
906.00	206.45
907.00	207.69
908.00	210.45
909.00	207.18
910.00	203.85
911.00	210.88
912.00	229.57
913.00	391.55
914.00	314.97
915.00	262.57
916.00	245.79
917.00	220.34
918.00	208.09
919.00	209.04
920.00	206.15
921.00	210.01
922.00	205.60
923.00	233.84
924.00	219.24
925.00	219.38
926.00	212.00
927.00	210.74
928.00	203.51
929.00	205.36
930.00	207.25
931.00	206.14
932.00	203.05
933.00	204.00
934.00	205.28
935.00	200.98
936.00	202.69
937.00	200.80
938.00	207.41
939.00	208.92
940.00	199.17
941.00	204.71
942.00	211.00
943.00	208.52
944.00	203.03
945.00	206.42
946.00	203.23
947.00	202.04
948.00	200.84
949.00	204.17
950.00	204.13
951.00	207.08
952.00	203.96
953.00	204.22
954.00	203.00
955.00	208.85
956.00	202.35
957.00	208.93
958.00	207.50
959.00	206.96
960.00	201.77
961.00	203.68
962.00	205.09
963.00	203.42
964.00	207.11
965.00	202.95
966.00	207.89
967.00	211.58
968.00	212.98
969.00	205.96
970.00	205.55
971.00	207.18
972.00	200.39
973.00	208.59
974.00	202.09
975.00	201.73
976.00	205.41
977.00	205.59
978.00	204.01
979.00	203.97
980.00	207.00
981.00	200.32
982.00	202.58
983.00	207.39
984.00	206.32
985.00	207.28
986.00	204.94
987.00	204.09
988.00	204.12
989.00	204.08
990.00	201.80
991.00	203.91
992.00	202.86
993.00	205.68
994.00	206.40
995.00	205.42
996.00	204.21
997.00	204.90
998.00	203.94
999.00	203.77
1000.00	199.78
>>>>>End Processed Spectral Data<<<<<
