SpectraSuite Data File
++++++++++++++++++++++++++++++++++++
Date: Tue Oct 18 14:49:23 CDT 2011
User: Helimak
Dark Spectrum Present: No
Reference Spectrum Present: No
Number of Sampled Component Spectra: 1
Spectrometers: USB2G37154
Integration Time (usec): 200000 (USB2G37154)
Spectra Averaged: 1 (USB2G37154)
Boxcar Smoothing: 0 (USB2G37154)
Correct for Electrical Dark: No (USB2G37154)
Strobe/Lamp Enabled: No (USB2G37154)
Correct for Detector Non-linearity: No (USB2G37154)
Correct for Stray Light: No (USB2G37154)
Number of Pixels in Processed Spectrum: 651
>>>>>Begin Processed Spectral Data<<<<<
350.00	200.52
351.00	203.91
352.00	201.97
353.00	206.64
354.00	207.15
355.00	204.30
356.00	206.86
357.00	202.88
358.00	203.71
359.00	205.60
360.00	209.08
361.00	203.85
362.00	206.62
363.00	205.26
364.00	211.71
365.00	209.48
366.00	205.31
367.00	200.85
368.00	206.65
369.00	206.10
370.00	214.04
371.00	211.28
372.00	213.69
373.00	212.96
374.00	210.67
375.00	214.23
376.00	209.50
377.00	216.63
378.00	220.17
379.00	217.77
380.00	224.27
381.00	216.64
382.00	223.50
383.00	227.73
384.00	228.96
385.00	231.36
386.00	233.00
387.00	230.03
388.00	223.73
389.00	221.99
390.00	222.69
391.00	225.66
392.00	226.53
393.00	230.01
394.00	239.87
395.00	228.65
396.00	228.03
397.00	220.09
398.00	223.81
399.00	234.55
400.00	249.54
401.00	263.80
402.00	262.07
403.00	272.09
404.00	275.95
405.00	251.92
406.00	268.05
407.00	274.15
408.00	249.51
409.00	250.71
410.00	257.78
411.00	235.76
412.00	249.92
413.00	244.05
414.00	235.86
415.00	302.78
416.00	277.47
417.00	261.25
418.00	281.24
419.00	382.68
420.00	322.72
421.00	257.39
422.00	286.62
423.00	264.20
424.00	258.50
425.00	351.60
426.00	395.98
427.00	393.85
428.00	307.46
429.00	307.10
430.00	293.87
431.00	271.27
432.00	309.19
433.00	372.87
434.00	723.54
435.00	478.77
436.00	342.47
437.00	325.71
438.00	281.27
439.00	337.10
440.00	311.85
441.00	306.70
442.00	502.23
443.00	349.36
444.00	268.27
445.00	242.91
446.00	244.76
447.00	270.10
448.00	257.85
449.00	255.02
450.00	277.41
451.00	274.59
452.00	271.37
453.00	280.36
454.00	346.73
455.00	301.29
456.00	292.48
457.00	330.26
458.00	416.30
459.00	353.52
460.00	504.84
461.00	392.09
462.00	296.67
463.00	267.84
464.00	256.17
465.00	315.52
466.00	284.23
467.00	261.38
468.00	262.97
469.00	264.50
470.00	273.59
471.00	272.93
472.00	330.00
473.00	351.97
474.00	287.40
475.00	275.89
476.00	355.00
477.00	277.18
478.00	260.88
479.00	271.74
480.00	559.91
481.00	356.30
482.00	281.67
483.00	264.76
484.00	327.92
485.00	355.84
486.00	365.40
487.00	711.34
488.00	582.06
489.00	372.00
490.00	303.42
491.00	286.60
492.00	286.67
493.00	303.46
494.00	270.25
495.00	268.86
496.00	339.88
497.00	294.06
498.00	271.15
499.00	269.42
500.00	328.19
501.00	359.23
502.00	293.02
503.00	276.96
504.00	300.07
505.00	323.88
506.00	333.46
507.00	323.39
508.00	316.34
509.00	287.95
510.00	274.65
511.00	276.98
512.00	274.07
513.00	278.47
514.00	345.52
515.00	293.63
516.00	286.87
517.00	277.55
518.00	299.10
519.00	284.67
520.00	261.06
521.00	266.45
522.00	275.40
523.00	263.05
524.00	267.65
525.00	278.99
526.00	271.65
527.00	262.79
528.00	258.82
529.00	258.30
530.00	260.11
531.00	257.76
532.00	272.19
533.00	280.72
534.00	279.51
535.00	286.34
536.00	285.22
537.00	284.04
538.00	276.75
539.00	272.11
540.00	271.43
541.00	271.59
542.00	279.03
543.00	273.99
544.00	281.68
545.00	287.94
546.00	290.55
547.00	295.62
548.00	280.88
549.00	322.66
550.00	314.15
551.00	286.95
552.00	278.27
553.00	265.82
554.00	269.50
555.00	294.09
556.00	302.15
557.00	289.03
558.00	259.91
559.00	261.67
560.00	288.76
561.00	269.55
562.00	251.78
563.00	248.45
564.00	253.79
565.00	280.81
566.00	268.21
567.00	278.33
568.00	279.13
569.00	274.55
570.00	271.43
571.00	269.16
572.00	248.92
573.00	260.22
574.00	271.71
575.00	248.67
576.00	245.76
577.00	258.92
578.00	255.68
579.00	259.21
580.00	255.37
581.00	242.12
582.00	244.08
583.00	251.93
584.00	250.81
585.00	244.55
586.00	253.81
587.00	257.11
588.00	267.32
589.00	286.94
590.00	259.58
591.00	266.00
592.00	262.23
593.00	263.58
594.00	252.03
595.00	237.83
596.00	238.54
597.00	247.74
598.00	249.09
599.00	259.15
600.00	258.74
601.00	270.42
602.00	269.81
603.00	395.80
604.00	346.19
605.00	296.60
606.00	280.45
607.00	245.61
608.00	233.06
609.00	237.88
610.00	255.12
611.00	285.84
612.00	266.73
613.00	249.89
614.00	242.28
615.00	253.18
616.00	248.33
617.00	290.92
618.00	258.25
619.00	249.43
620.00	238.35
621.00	256.34
622.00	250.11
623.00	229.49
624.00	257.32
625.00	257.03
626.00	248.00
627.00	250.58
628.00	248.63
629.00	245.22
630.00	255.31
631.00	255.10
632.00	236.87
633.00	232.00
634.00	229.18
635.00	231.06
636.00	233.27
637.00	241.41
638.00	237.92
639.00	233.39
640.00	242.88
641.00	252.57
642.00	275.93
643.00	244.96
644.00	234.04
645.00	232.52
646.00	240.97
647.00	238.21
648.00	233.75
649.00	232.20
650.00	230.64
651.00	229.46
652.00	228.10
653.00	229.41
654.00	235.75
655.00	232.92
656.00	373.86
657.00	342.58
658.00	266.98
659.00	230.41
660.00	233.52
661.00	226.20
662.00	222.78
663.00	219.64
664.00	257.19
665.00	248.35
666.00	228.83
667.00	231.54
668.00	238.50
669.00	237.13
670.00	224.43
671.00	219.92
672.00	229.04
673.00	223.04
674.00	227.18
675.00	266.54
676.00	277.99
677.00	236.58
678.00	222.18
679.00	220.64
680.00	214.75
681.00	217.09
682.00	224.72
683.00	217.85
684.00	225.66
685.00	222.58
686.00	220.56
687.00	243.94
688.00	242.65
689.00	238.84
690.00	224.75
691.00	219.76
692.00	223.95
693.00	226.90
694.00	247.93
695.00	242.18
696.00	272.02
697.00	434.84
698.00	276.52
699.00	244.65
700.00	229.81
701.00	220.60
702.00	220.69
703.00	265.10
704.00	252.03
705.00	228.91
706.00	220.89
707.00	358.51
708.00	271.24
709.00	234.23
710.00	216.42
711.00	220.00
712.00	220.16
713.00	213.32
714.00	223.54
715.00	237.04
716.00	224.64
717.00	216.20
718.00	214.45
719.00	210.55
720.00	211.53
721.00	222.50
722.00	214.26
723.00	219.85
724.00	222.30
725.00	239.38
726.00	220.07
727.00	231.35
728.00	257.20
729.00	226.26
730.00	214.49
731.00	216.85
732.00	219.48
733.00	215.36
734.00	215.61
735.00	216.67
736.00	238.27
737.00	246.38
738.00	306.60
739.00	402.86
740.00	267.97
741.00	225.95
742.00	216.96
743.00	218.05
744.00	225.05
745.00	230.94
746.00	209.85
747.00	214.14
748.00	212.98
749.00	215.96
750.00	292.70
751.00	762.84
752.00	583.98
753.00	344.58
754.00	241.13
755.00	219.58
756.00	211.99
757.00	212.19
758.00	215.11
759.00	221.90
760.00	217.49
761.00	211.42
762.00	219.08
763.00	256.05
764.00	1225.01
765.00	602.65
766.00	337.54
767.00	232.03
768.00	217.80
769.00	212.23
770.00	212.80
771.00	209.55
772.00	225.17
773.00	424.68
774.00	283.57
775.00	239.19
776.00	209.41
777.00	222.04
778.00	325.05
779.00	254.87
780.00	220.97
781.00	209.57
782.00	207.07
783.00	209.88
784.00	206.85
785.00	210.16
786.00	211.45
787.00	213.17
788.00	215.68
789.00	217.97
790.00	223.52
791.00	218.76
792.00	215.66
793.00	214.76
794.00	214.96
795.00	353.69
796.00	368.54
797.00	257.07
798.00	232.51
799.00	211.03
800.00	213.05
801.00	345.42
802.00	522.03
803.00	353.19
804.00	258.08
805.00	219.38
806.00	217.18
807.00	209.86
808.00	208.82
809.00	213.80
810.00	230.45
811.00	495.44
812.00	2384.25
813.00	1367.13
814.00	575.53
815.00	336.71
816.00	223.15
817.00	213.92
818.00	206.30
819.00	209.38
820.00	204.18
821.00	207.93
822.00	208.64
823.00	205.01
824.00	203.75
825.00	217.27
826.00	209.09
827.00	305.85
828.00	252.42
829.00	224.99
830.00	215.91
831.00	206.42
832.00	206.44
833.00	208.86
834.00	207.72
835.00	210.11
836.00	207.69
837.00	209.67
838.00	207.48
839.00	208.90
840.00	206.46
841.00	288.52
842.00	317.41
843.00	519.70
844.00	353.47
845.00	265.45
846.00	239.11
847.00	213.64
848.00	205.99
849.00	201.02
850.00	205.25
851.00	203.16
852.00	216.99
853.00	273.93
854.00	227.65
855.00	213.11
856.00	216.19
857.00	208.42
858.00	209.51
859.00	206.11
860.00	205.73
861.00	211.08
862.00	209.30
863.00	206.61
864.00	210.06
865.00	208.67
866.00	208.67
867.00	214.75
868.00	214.04
869.00	203.79
870.00	207.15
871.00	204.05
872.00	206.13
873.00	207.50
874.00	205.94
875.00	204.19
876.00	205.11
877.00	205.27
878.00	203.20
879.00	205.89
880.00	205.87
881.00	203.96
882.00	204.80
883.00	208.95
884.00	198.99
885.00	204.78
886.00	202.20
887.00	208.94
888.00	205.07
889.00	204.96
890.00	206.54
891.00	208.70
892.00	209.77
893.00	206.57
894.00	201.53
895.00	207.81
896.00	204.85
897.00	203.50
898.00	204.85
899.00	202.66
900.00	204.64
901.00	204.65
902.00	202.80
903.00	211.01
904.00	203.50
905.00	200.27
906.00	204.08
907.00	205.85
908.00	211.41
909.00	205.47
910.00	204.45
911.00	206.75
912.00	226.75
913.00	348.19
914.00	281.93
915.00	255.07
916.00	229.01
917.00	217.82
918.00	203.18
919.00	205.42
920.00	205.00
921.00	206.80
922.00	205.60
923.00	225.78
924.00	218.39
925.00	214.39
926.00	207.00
927.00	205.50
928.00	202.60
929.00	204.73
930.00	204.00
931.00	204.05
932.00	205.09
933.00	202.57
934.00	205.15
935.00	205.89
936.00	203.36
937.00	204.86
938.00	205.73
939.00	204.15
940.00	208.01
941.00	206.25
942.00	205.97
943.00	205.22
944.00	204.50
945.00	210.14
946.00	202.80
947.00	202.12
948.00	208.64
949.00	201.99
950.00	205.33
951.00	205.11
952.00	201.02
953.00	201.47
954.00	203.34
955.00	205.00
956.00	203.92
957.00	202.71
958.00	206.38
959.00	199.92
960.00	200.98
961.00	203.76
962.00	201.22
963.00	204.08
964.00	203.23
965.00	199.85
966.00	203.33
967.00	211.67
968.00	207.00
969.00	205.96
970.00	203.47
971.00	207.52
972.00	203.43
973.00	206.97
974.00	203.40
975.00	203.35
976.00	202.69
977.00	205.30
978.00	205.54
979.00	206.34
980.00	203.80
981.00	206.32
982.00	201.36
983.00	206.69
984.00	202.80
985.00	208.73
986.00	207.11
987.00	201.81
988.00	202.62
989.00	206.52
990.00	202.70
991.00	206.80
992.00	205.55
993.00	202.31
994.00	203.61
995.00	204.98
996.00	201.93
997.00	205.49
998.00	208.40
999.00	205.29
1000.00	199.30
>>>>>End Processed Spectral Data<<<<<
