SpectraSuite Data File
++++++++++++++++++++++++++++++++++++
Date: Tue Oct 18 14:45:27 CDT 2011
User: Helimak
Dark Spectrum Present: No
Reference Spectrum Present: No
Number of Sampled Component Spectra: 1
Spectrometers: USB2G37154
Integration Time (usec): 200000 (USB2G37154)
Spectra Averaged: 1 (USB2G37154)
Boxcar Smoothing: 0 (USB2G37154)
Correct for Electrical Dark: No (USB2G37154)
Strobe/Lamp Enabled: No (USB2G37154)
Correct for Detector Non-linearity: No (USB2G37154)
Correct for Stray Light: No (USB2G37154)
Number of Pixels in Processed Spectrum: 651
>>>>>Begin Processed Spectral Data<<<<<
350.00	203.68
351.00	206.65
352.00	201.72
353.00	203.60
354.00	200.23
355.00	203.02
356.00	204.86
357.00	204.28
358.00	202.85
359.00	204.90
360.00	207.73
361.00	204.02
362.00	204.31
363.00	205.13
364.00	207.81
365.00	206.23
366.00	205.92
367.00	208.76
368.00	209.49
369.00	207.98
370.00	206.05
371.00	205.52
372.00	209.67
373.00	209.69
374.00	213.53
375.00	211.84
376.00	211.20
377.00	213.61
378.00	223.05
379.00	216.79
380.00	220.20
381.00	220.37
382.00	219.06
383.00	222.78
384.00	221.76
385.00	226.04
386.00	225.05
387.00	225.67
388.00	220.97
389.00	219.87
390.00	223.70
391.00	224.94
392.00	223.26
393.00	221.89
394.00	231.32
395.00	222.12
396.00	216.91
397.00	216.64
398.00	216.97
399.00	227.41
400.00	240.31
401.00	252.39
402.00	243.64
403.00	252.82
404.00	261.84
405.00	249.99
406.00	245.03
407.00	261.63
408.00	239.06
409.00	243.64
410.00	240.85
411.00	231.02
412.00	237.53
413.00	232.98
414.00	231.71
415.00	278.80
416.00	265.85
417.00	245.95
418.00	271.90
419.00	353.57
420.00	304.57
421.00	246.66
422.00	268.09
423.00	254.44
424.00	245.40
425.00	314.43
426.00	355.81
427.00	350.70
428.00	292.26
429.00	283.85
430.00	273.94
431.00	254.61
432.00	283.04
433.00	336.31
434.00	610.69
435.00	418.96
436.00	316.30
437.00	301.58
438.00	262.11
439.00	318.46
440.00	288.74
441.00	280.22
442.00	429.55
443.00	316.07
444.00	256.82
445.00	241.95
446.00	237.31
447.00	252.85
448.00	251.86
449.00	246.10
450.00	268.33
451.00	262.47
452.00	255.47
453.00	267.10
454.00	312.59
455.00	280.99
456.00	277.39
457.00	305.41
458.00	369.50
459.00	328.67
460.00	436.50
461.00	348.71
462.00	273.95
463.00	253.81
464.00	250.29
465.00	294.83
466.00	264.10
467.00	246.86
468.00	248.26
469.00	256.51
470.00	253.70
471.00	256.03
472.00	306.17
473.00	317.59
474.00	270.49
475.00	261.70
476.00	315.64
477.00	269.38
478.00	246.43
479.00	256.71
480.00	484.45
481.00	311.80
482.00	263.78
483.00	250.55
484.00	290.97
485.00	320.97
486.00	326.69
487.00	598.95
488.00	500.93
489.00	344.69
490.00	285.65
491.00	273.23
492.00	271.54
493.00	280.89
494.00	259.61
495.00	260.29
496.00	308.77
497.00	278.32
498.00	266.30
499.00	261.00
500.00	298.22
501.00	330.19
502.00	284.02
503.00	266.47
504.00	277.65
505.00	299.95
506.00	309.83
507.00	307.76
508.00	295.51
509.00	280.68
510.00	262.73
511.00	261.03
512.00	264.07
513.00	267.92
514.00	315.49
515.00	279.67
516.00	277.38
517.00	261.15
518.00	280.84
519.00	274.01
520.00	252.52
521.00	253.30
522.00	257.04
523.00	252.37
524.00	253.42
525.00	264.94
526.00	254.22
527.00	251.68
528.00	251.33
529.00	249.52
530.00	248.70
531.00	254.83
532.00	258.93
533.00	260.45
534.00	266.56
535.00	277.88
536.00	272.02
537.00	267.11
538.00	271.85
539.00	260.53
540.00	260.32
541.00	259.59
542.00	267.88
543.00	257.14
544.00	265.80
545.00	274.76
546.00	269.76
547.00	274.39
548.00	265.41
549.00	294.95
550.00	294.33
551.00	277.96
552.00	269.41
553.00	261.19
554.00	257.97
555.00	275.74
556.00	287.94
557.00	271.24
558.00	253.38
559.00	253.00
560.00	274.26
561.00	256.44
562.00	245.95
563.00	243.13
564.00	248.02
565.00	266.13
566.00	255.58
567.00	264.27
568.00	266.05
569.00	262.03
570.00	256.65
571.00	258.93
572.00	243.64
573.00	252.00
574.00	256.80
575.00	241.25
576.00	240.86
577.00	248.90
578.00	249.83
579.00	240.98
580.00	241.35
581.00	240.00
582.00	238.77
583.00	240.82
584.00	235.62
585.00	240.61
586.00	245.70
587.00	243.05
588.00	254.73
589.00	275.50
590.00	253.36
591.00	250.72
592.00	243.96
593.00	250.66
594.00	246.03
595.00	237.87
596.00	231.15
597.00	234.67
598.00	243.06
599.00	247.74
600.00	249.61
601.00	254.16
602.00	260.64
603.00	356.97
604.00	319.61
605.00	277.53
606.00	264.90
607.00	239.17
608.00	230.76
609.00	229.91
610.00	245.36
611.00	271.92
612.00	259.39
613.00	238.57
614.00	238.50
615.00	243.18
616.00	243.07
617.00	274.94
618.00	248.09
619.00	248.97
620.00	234.10
621.00	252.34
622.00	243.82
623.00	232.41
624.00	245.64
625.00	246.68
626.00	240.92
627.00	231.92
628.00	242.57
629.00	242.75
630.00	247.88
631.00	246.44
632.00	231.95
633.00	230.49
634.00	222.83
635.00	225.90
636.00	223.17
637.00	232.07
638.00	226.88
639.00	233.39
640.00	239.98
641.00	248.83
642.00	264.39
643.00	238.70
644.00	228.77
645.00	228.27
646.00	233.00
647.00	234.75
648.00	235.02
649.00	225.87
650.00	228.03
651.00	225.14
652.00	224.18
653.00	223.47
654.00	232.97
655.00	228.54
656.00	338.01
657.00	310.86
658.00	252.99
659.00	224.87
660.00	228.83
661.00	225.20
662.00	216.55
663.00	219.17
664.00	245.60
665.00	242.52
666.00	226.76
667.00	222.10
668.00	232.48
669.00	234.01
670.00	218.95
671.00	220.98
672.00	223.17
673.00	219.01
674.00	220.09
675.00	255.46
676.00	262.33
677.00	230.98
678.00	218.88
679.00	217.29
680.00	215.17
681.00	216.57
682.00	221.13
683.00	216.87
684.00	221.59
685.00	223.10
686.00	216.65
687.00	240.27
688.00	230.99
689.00	232.04
690.00	218.29
691.00	222.26
692.00	216.45
693.00	216.54
694.00	235.85
695.00	230.77
696.00	263.01
697.00	398.77
698.00	269.77
699.00	230.22
700.00	221.67
701.00	221.17
702.00	224.30
703.00	251.44
704.00	246.25
705.00	220.61
706.00	225.82
707.00	329.48
708.00	261.83
709.00	229.17
710.00	216.98
711.00	216.70
712.00	219.73
713.00	214.72
714.00	211.60
715.00	230.70
716.00	223.48
717.00	215.32
718.00	208.95
719.00	215.12
720.00	213.23
721.00	212.61
722.00	216.35
723.00	217.81
724.00	221.23
725.00	235.18
726.00	213.51
727.00	230.97
728.00	249.48
729.00	226.26
730.00	212.20
731.00	216.17
732.00	217.94
733.00	213.61
734.00	214.98
735.00	218.95
736.00	233.66
737.00	239.91
738.00	295.25
739.00	371.74
740.00	256.41
741.00	228.09
742.00	218.00
743.00	213.97
744.00	223.02
745.00	221.65
746.00	209.69
747.00	195.88
748.00	209.26
749.00	214.54
750.00	271.08
751.00	662.23
752.00	526.03
753.00	324.38
754.00	235.69
755.00	213.09
756.00	210.17
757.00	209.51
758.00	207.96
759.00	213.90
760.00	209.07
761.00	213.92
762.00	216.18
763.00	252.54
764.00	1034.16
765.00	539.54
766.00	321.85
767.00	232.39
768.00	207.69
769.00	211.36
770.00	208.03
771.00	210.80
772.00	220.58
773.00	384.19
774.00	272.73
775.00	239.51
776.00	213.79
777.00	216.25
778.00	303.01
779.00	249.32
780.00	215.98
781.00	206.31
782.00	209.06
783.00	204.05
784.00	211.49
785.00	209.96
786.00	211.40
787.00	209.56
788.00	213.16
789.00	220.00
790.00	217.23
791.00	218.19
792.00	213.23
793.00	209.32
794.00	212.06
795.00	330.18
796.00	338.73
797.00	248.50
798.00	228.37
799.00	211.58
800.00	211.79
801.00	310.03
802.00	472.31
803.00	324.72
804.00	247.19
805.00	219.11
806.00	212.28
807.00	209.03
808.00	211.87
809.00	214.01
810.00	222.26
811.00	445.36
812.00	2031.10
813.00	1200.97
814.00	516.54
815.00	321.03
816.00	221.99
817.00	212.49
818.00	208.09
819.00	209.78
820.00	207.94
821.00	209.93
822.00	204.23
823.00	210.75
824.00	206.13
825.00	214.74
826.00	207.28
827.00	285.79
828.00	249.96
829.00	221.84
830.00	210.73
831.00	210.38
832.00	198.62
833.00	209.68
834.00	204.96
835.00	205.48
836.00	208.68
837.00	208.55
838.00	208.58
839.00	205.99
840.00	205.49
841.00	266.49
842.00	298.98
843.00	456.88
844.00	336.99
845.00	253.62
846.00	234.42
847.00	212.51
848.00	205.11
849.00	205.97
850.00	205.99
851.00	203.48
852.00	214.66
853.00	271.96
854.00	224.31
855.00	211.87
856.00	214.55
857.00	205.85
858.00	207.50
859.00	203.07
860.00	204.21
861.00	214.12
862.00	206.12
863.00	208.09
864.00	207.81
865.00	207.10
866.00	206.56
867.00	209.82
868.00	213.98
869.00	209.96
870.00	206.68
871.00	208.55
872.00	205.95
873.00	205.96
874.00	197.82
875.00	204.27
876.00	209.17
877.00	203.28
878.00	204.45
879.00	203.01
880.00	203.81
881.00	204.26
882.00	208.38
883.00	206.35
884.00	202.01
885.00	205.12
886.00	204.44
887.00	204.98
888.00	202.01
889.00	202.99
890.00	209.74
891.00	206.31
892.00	208.06
893.00	200.21
894.00	205.51
895.00	210.77
896.00	204.34
897.00	204.67
898.00	201.19
899.00	202.12
900.00	202.76
901.00	202.07
902.00	203.57
903.00	213.03
904.00	203.36
905.00	201.05
906.00	207.94
907.00	205.98
908.00	206.09
909.00	204.11
910.00	204.40
911.00	205.70
912.00	220.18
913.00	326.89
914.00	269.46
915.00	240.74
916.00	228.69
917.00	215.69
918.00	201.91
919.00	206.21
920.00	202.39
921.00	206.45
922.00	204.37
923.00	228.83
924.00	216.25
925.00	213.30
926.00	208.99
927.00	206.12
928.00	205.73
929.00	205.27
930.00	205.65
931.00	200.87
932.00	204.17
933.00	206.91
934.00	202.52
935.00	203.85
936.00	205.47
937.00	200.87
938.00	205.57
939.00	207.36
940.00	206.96
941.00	204.12
942.00	205.92
943.00	203.76
944.00	199.43
945.00	206.56
946.00	202.37
947.00	200.06
948.00	202.79
949.00	204.96
950.00	203.17
951.00	203.02
952.00	200.99
953.00	203.68
954.00	198.94
955.00	206.38
956.00	210.97
957.00	198.16
958.00	206.04
959.00	201.97
960.00	203.80
961.00	201.37
962.00	202.36
963.00	203.04
964.00	204.59
965.00	203.08
966.00	202.26
967.00	211.51
968.00	210.00
969.00	203.55
970.00	203.82
971.00	205.13
972.00	202.16
973.00	204.56
974.00	206.53
975.00	203.52
976.00	206.61
977.00	202.05
978.00	208.06
979.00	204.87
980.00	200.74
981.00	205.70
982.00	206.24
983.00	206.76
984.00	200.97
985.00	205.65
986.00	203.63
987.00	200.93
988.00	209.19
989.00	206.52
990.00	205.20
991.00	206.81
992.00	206.43
993.00	208.15
994.00	193.35
995.00	203.68
996.00	202.73
997.00	203.90
998.00	206.65
999.00	200.06
1000.00	206.08
>>>>>End Processed Spectral Data<<<<<
