SpectraSuite Data File
++++++++++++++++++++++++++++++++++++
Date: Tue Oct 18 14:45:26 CDT 2011
User: Helimak
Dark Spectrum Present: No
Reference Spectrum Present: No
Number of Sampled Component Spectra: 1
Spectrometers: USB2G37154
Integration Time (usec): 200000 (USB2G37154)
Spectra Averaged: 1 (USB2G37154)
Boxcar Smoothing: 0 (USB2G37154)
Correct for Electrical Dark: No (USB2G37154)
Strobe/Lamp Enabled: No (USB2G37154)
Correct for Detector Non-linearity: No (USB2G37154)
Correct for Stray Light: No (USB2G37154)
Number of Pixels in Processed Spectrum: 651
>>>>>Begin Processed Spectral Data<<<<<
350.00	200.11
351.00	201.79
352.00	201.12
353.00	205.32
354.00	202.16
355.00	208.58
356.00	201.20
357.00	204.03
358.00	207.73
359.00	208.16
360.00	206.80
361.00	205.04
362.00	211.92
363.00	202.64
364.00	209.63
365.00	207.42
366.00	207.51
367.00	209.01
368.00	210.53
369.00	209.13
370.00	208.04
371.00	210.97
372.00	210.80
373.00	209.76
374.00	211.67
375.00	212.53
376.00	211.31
377.00	214.52
378.00	220.05
379.00	219.01
380.00	217.04
381.00	220.34
382.00	220.25
383.00	222.72
384.00	225.87
385.00	224.54
386.00	228.92
387.00	230.00
388.00	221.87
389.00	222.96
390.00	217.14
391.00	227.37
392.00	222.80
393.00	227.65
394.00	233.27
395.00	225.36
396.00	225.94
397.00	221.27
398.00	220.08
399.00	226.25
400.00	243.81
401.00	257.46
402.00	254.50
403.00	257.69
404.00	266.39
405.00	249.56
406.00	252.03
407.00	265.49
408.00	246.94
409.00	245.56
410.00	248.23
411.00	234.25
412.00	238.70
413.00	235.05
414.00	228.74
415.00	283.16
416.00	262.04
417.00	249.97
418.00	271.14
419.00	362.12
420.00	308.48
421.00	252.52
422.00	274.89
423.00	252.89
424.00	248.99
425.00	319.91
426.00	363.38
427.00	354.77
428.00	288.40
429.00	289.97
430.00	276.16
431.00	257.63
432.00	296.79
433.00	342.76
434.00	627.08
435.00	423.48
436.00	318.45
437.00	303.35
438.00	267.12
439.00	309.60
440.00	296.46
441.00	292.74
442.00	436.60
443.00	323.89
444.00	260.83
445.00	238.02
446.00	239.44
447.00	254.72
448.00	251.93
449.00	241.98
450.00	261.46
451.00	266.99
452.00	260.63
453.00	271.78
454.00	320.25
455.00	288.12
456.00	280.81
457.00	308.51
458.00	380.44
459.00	324.49
460.00	439.39
461.00	351.29
462.00	277.21
463.00	257.62
464.00	251.18
465.00	293.10
466.00	275.68
467.00	251.97
468.00	255.20
469.00	256.85
470.00	254.05
471.00	254.68
472.00	306.02
473.00	326.25
474.00	274.42
475.00	254.59
476.00	325.84
477.00	267.42
478.00	245.46
479.00	262.01
480.00	487.09
481.00	330.14
482.00	274.29
483.00	258.97
484.00	301.72
485.00	321.08
486.00	332.33
487.00	606.89
488.00	516.34
489.00	349.72
490.00	291.72
491.00	274.53
492.00	275.09
493.00	283.87
494.00	265.47
495.00	265.60
496.00	317.08
497.00	280.41
498.00	268.11
499.00	261.05
500.00	303.34
501.00	328.06
502.00	279.04
503.00	267.69
504.00	287.05
505.00	309.38
506.00	311.93
507.00	305.27
508.00	296.13
509.00	279.17
510.00	265.32
511.00	262.00
512.00	266.23
513.00	265.63
514.00	321.48
515.00	287.45
516.00	277.34
517.00	259.71
518.00	288.07
519.00	269.35
520.00	251.95
521.00	257.64
522.00	260.64
523.00	255.93
524.00	257.71
525.00	264.33
526.00	261.44
527.00	255.28
528.00	254.48
529.00	252.36
530.00	248.09
531.00	254.13
532.00	254.27
533.00	269.03
534.00	273.99
535.00	279.79
536.00	267.50
537.00	269.18
538.00	268.53
539.00	259.63
540.00	260.42
541.00	259.08
542.00	271.43
543.00	266.23
544.00	267.55
545.00	282.48
546.00	275.94
547.00	280.11
548.00	271.27
549.00	305.53
550.00	292.08
551.00	275.95
552.00	267.02
553.00	263.86
554.00	257.85
555.00	282.72
556.00	286.91
557.00	267.31
558.00	250.66
559.00	253.98
560.00	274.02
561.00	259.84
562.00	246.94
563.00	243.70
564.00	250.78
565.00	266.64
566.00	258.65
567.00	264.74
568.00	268.13
569.00	260.68
570.00	254.77
571.00	261.69
572.00	246.40
573.00	247.85
574.00	262.51
575.00	247.24
576.00	242.91
577.00	251.06
578.00	245.15
579.00	247.11
580.00	241.79
581.00	235.50
582.00	235.24
583.00	242.81
584.00	241.71
585.00	243.10
586.00	251.76
587.00	249.11
588.00	260.43
589.00	275.05
590.00	250.94
591.00	254.30
592.00	240.27
593.00	248.59
594.00	241.01
595.00	233.53
596.00	237.84
597.00	238.17
598.00	246.88
599.00	253.80
600.00	243.88
601.00	253.05
602.00	255.79
603.00	365.03
604.00	327.39
605.00	284.57
606.00	268.07
607.00	242.77
608.00	233.34
609.00	237.94
610.00	252.95
611.00	269.99
612.00	258.13
613.00	240.80
614.00	241.55
615.00	242.33
616.00	241.00
617.00	277.89
618.00	245.80
619.00	249.28
620.00	237.11
621.00	254.90
622.00	242.60
623.00	228.36
624.00	244.65
625.00	250.61
626.00	243.15
627.00	238.10
628.00	247.43
629.00	248.98
630.00	251.99
631.00	250.40
632.00	231.26
633.00	229.39
634.00	222.98
635.00	231.84
636.00	226.13
637.00	232.58
638.00	232.13
639.00	232.84
640.00	242.14
641.00	240.94
642.00	263.12
643.00	238.53
644.00	230.87
645.00	233.92
646.00	240.03
647.00	231.40
648.00	232.36
649.00	229.14
650.00	226.64
651.00	222.08
652.00	224.56
653.00	224.34
654.00	230.54
655.00	233.37
656.00	344.23
657.00	317.87
658.00	249.99
659.00	230.51
660.00	226.91
661.00	230.03
662.00	216.66
663.00	213.94
664.00	250.18
665.00	242.63
666.00	231.21
667.00	225.66
668.00	236.84
669.00	236.87
670.00	224.51
671.00	216.72
672.00	221.53
673.00	218.00
674.00	223.94
675.00	261.07
676.00	266.57
677.00	232.27
678.00	217.55
679.00	214.06
680.00	213.34
681.00	217.82
682.00	219.42
683.00	218.40
684.00	222.29
685.00	219.89
686.00	215.40
687.00	244.54
688.00	233.44
689.00	231.71
690.00	218.72
691.00	218.54
692.00	218.12
693.00	224.02
694.00	239.12
695.00	230.00
696.00	262.01
697.00	405.99
698.00	274.35
699.00	232.42
700.00	222.40
701.00	220.26
702.00	224.60
703.00	249.31
704.00	246.54
705.00	227.13
706.00	216.28
707.00	336.73
708.00	260.35
709.00	220.65
710.00	209.40
711.00	219.37
712.00	216.73
713.00	215.95
714.00	214.35
715.00	230.94
716.00	223.68
717.00	218.11
718.00	215.57
719.00	207.79
720.00	214.78
721.00	218.21
722.00	219.74
723.00	216.14
724.00	217.12
725.00	233.95
726.00	217.31
727.00	229.75
728.00	247.03
729.00	222.71
730.00	216.77
731.00	215.82
732.00	219.23
733.00	209.11
734.00	212.96
735.00	218.08
736.00	228.03
737.00	247.16
738.00	301.96
739.00	372.84
740.00	263.89
741.00	230.03
742.00	217.98
743.00	220.03
744.00	223.21
745.00	224.48
746.00	208.81
747.00	209.74
748.00	215.09
749.00	215.12
750.00	278.88
751.00	672.76
752.00	538.99
753.00	326.95
754.00	236.21
755.00	213.48
756.00	213.61
757.00	212.85
758.00	211.43
759.00	214.87
760.00	213.51
761.00	212.24
762.00	215.30
763.00	257.86
764.00	1059.05
765.00	560.10
766.00	321.73
767.00	232.44
768.00	216.18
769.00	210.44
770.00	207.52
771.00	211.36
772.00	224.34
773.00	395.86
774.00	271.91
775.00	235.33
776.00	210.38
777.00	219.35
778.00	301.03
779.00	245.93
780.00	221.54
781.00	208.96
782.00	208.99
783.00	208.56
784.00	209.34
785.00	210.95
786.00	210.70
787.00	216.29
788.00	208.90
789.00	220.01
790.00	219.54
791.00	217.78
792.00	214.00
793.00	212.47
794.00	214.50
795.00	333.15
796.00	346.03
797.00	253.15
798.00	227.33
799.00	211.88
800.00	215.57
801.00	324.19
802.00	484.07
803.00	335.71
804.00	248.14
805.00	221.35
806.00	216.20
807.00	209.80
808.00	213.84
809.00	216.26
810.00	224.29
811.00	458.03
812.00	2082.34
813.00	1241.80
814.00	530.58
815.00	328.82
816.00	221.75
817.00	215.25
818.00	208.34
819.00	209.15
820.00	208.94
821.00	206.09
822.00	209.47
823.00	203.42
824.00	205.07
825.00	214.86
826.00	209.26
827.00	290.84
828.00	247.36
829.00	220.56
830.00	208.65
831.00	208.15
832.00	205.02
833.00	209.79
834.00	209.10
835.00	206.27
836.00	207.77
837.00	203.30
838.00	207.49
839.00	205.91
840.00	210.55
841.00	269.81
842.00	299.01
843.00	472.78
844.00	333.45
845.00	257.37
846.00	227.65
847.00	210.33
848.00	205.31
849.00	204.62
850.00	204.97
851.00	204.66
852.00	213.97
853.00	271.33
854.00	226.26
855.00	214.78
856.00	221.16
857.00	205.97
858.00	209.96
859.00	203.09
860.00	204.19
861.00	213.78
862.00	211.04
863.00	207.29
864.00	209.01
865.00	206.66
866.00	203.02
867.00	209.62
868.00	219.01
869.00	212.51
870.00	208.32
871.00	206.98
872.00	205.90
873.00	208.51
874.00	203.66
875.00	202.07
876.00	202.15
877.00	207.78
878.00	204.69
879.00	204.78
880.00	203.85
881.00	201.68
882.00	206.12
883.00	203.42
884.00	204.00
885.00	207.68
886.00	208.48
887.00	205.01
888.00	206.33
889.00	209.19
890.00	210.02
891.00	202.28
892.00	206.37
893.00	203.40
894.00	202.23
895.00	207.79
896.00	205.98
897.00	203.13
898.00	206.14
899.00	201.54
900.00	207.12
901.00	205.76
902.00	203.26
903.00	207.91
904.00	202.09
905.00	208.05
906.00	212.57
907.00	202.79
908.00	202.07
909.00	204.61
910.00	205.74
911.00	205.69
912.00	225.61
913.00	328.79
914.00	280.45
915.00	244.01
916.00	231.02
917.00	211.62
918.00	205.44
919.00	208.72
920.00	204.62
921.00	208.62
922.00	205.84
923.00	224.22
924.00	217.51
925.00	213.37
926.00	209.98
927.00	205.59
928.00	202.70
929.00	200.98
930.00	204.01
931.00	206.32
932.00	202.85
933.00	203.66
934.00	208.83
935.00	205.08
936.00	205.50
937.00	205.27
938.00	205.91
939.00	204.95
940.00	206.62
941.00	200.15
942.00	207.95
943.00	208.34
944.00	201.28
945.00	202.34
946.00	200.84
947.00	203.22
948.00	203.03
949.00	205.15
950.00	201.34
951.00	194.56
952.00	202.00
953.00	204.51
954.00	203.05
955.00	203.32
956.00	206.56
957.00	204.66
958.00	207.76
959.00	202.96
960.00	200.37
961.00	211.34
962.00	206.16
963.00	205.07
964.00	203.10
965.00	204.47
966.00	201.29
967.00	210.81
968.00	213.97
969.00	206.84
970.00	204.74
971.00	206.52
972.00	201.47
973.00	205.18
974.00	205.11
975.00	203.99
976.00	206.88
977.00	200.18
978.00	206.17
979.00	202.35
980.00	204.76
981.00	204.73
982.00	206.46
983.00	207.82
984.00	203.67
985.00	208.11
986.00	205.44
987.00	203.08
988.00	207.96
989.00	202.45
990.00	205.09
991.00	203.96
992.00	205.27
993.00	202.76
994.00	203.53
995.00	204.13
996.00	203.41
997.00	203.46
998.00	199.42
999.00	204.54
1000.00	197.19
>>>>>End Processed Spectral Data<<<<<
