SpectraSuite Data File
++++++++++++++++++++++++++++++++++++
Date: Tue Oct 18 14:43:24 CDT 2011
User: Helimak
Dark Spectrum Present: No
Reference Spectrum Present: No
Number of Sampled Component Spectra: 1
Spectrometers: USB2G37154
Integration Time (usec): 200000 (USB2G37154)
Spectra Averaged: 1 (USB2G37154)
Boxcar Smoothing: 0 (USB2G37154)
Correct for Electrical Dark: No (USB2G37154)
Strobe/Lamp Enabled: No (USB2G37154)
Correct for Detector Non-linearity: No (USB2G37154)
Correct for Stray Light: No (USB2G37154)
Number of Pixels in Processed Spectrum: 651
>>>>>Begin Processed Spectral Data<<<<<
350.00	203.62
351.00	204.34
352.00	202.76
353.00	202.46
354.00	204.39
355.00	197.23
356.00	204.90
357.00	206.74
358.00	215.31
359.00	213.21
360.00	210.06
361.00	205.98
362.00	213.04
363.00	207.21
364.00	212.94
365.00	210.46
366.00	214.29
367.00	211.82
368.00	207.23
369.00	213.60
370.00	216.01
371.00	218.45
372.00	225.88
373.00	220.77
374.00	214.08
375.00	224.52
376.00	221.09
377.00	223.32
378.00	237.07
379.00	236.49
380.00	243.93
381.00	243.66
382.00	241.43
383.00	248.85
384.00	256.57
385.00	258.07
386.00	253.98
387.00	255.02
388.00	247.16
389.00	236.65
390.00	236.90
391.00	247.55
392.00	263.46
393.00	257.35
394.00	267.08
395.00	251.59
396.00	255.98
397.00	242.92
398.00	247.13
399.00	261.38
400.00	302.98
401.00	325.53
402.00	316.02
403.00	338.26
404.00	343.42
405.00	305.51
406.00	348.10
407.00	369.21
408.00	307.53
409.00	316.12
410.00	318.41
411.00	273.97
412.00	294.33
413.00	289.27
414.00	270.57
415.00	370.52
416.00	324.81
417.00	304.69
418.00	348.99
419.00	528.79
420.00	415.89
421.00	317.67
422.00	383.43
423.00	337.16
424.00	311.43
425.00	471.44
426.00	606.24
427.00	610.49
428.00	423.39
429.00	389.95
430.00	369.22
431.00	328.76
432.00	430.45
433.00	568.23
434.00	1566.21
435.00	917.08
436.00	537.66
437.00	488.69
438.00	389.35
439.00	525.85
440.00	461.29
441.00	436.95
442.00	968.37
443.00	576.38
444.00	359.64
445.00	285.94
446.00	275.89
447.00	334.71
448.00	331.15
449.00	296.32
450.00	318.61
451.00	319.83
452.00	320.10
453.00	351.89
454.00	502.47
455.00	400.13
456.00	367.95
457.00	460.62
458.00	699.18
459.00	546.26
460.00	931.75
461.00	639.85
462.00	394.34
463.00	330.64
464.00	306.06
465.00	440.53
466.00	357.22
467.00	299.93
468.00	300.17
469.00	308.78
470.00	310.75
471.00	315.53
472.00	493.46
473.00	557.77
474.00	373.86
475.00	347.64
476.00	537.06
477.00	356.54
478.00	300.27
479.00	332.91
480.00	1130.37
481.00	552.86
482.00	358.84
483.00	303.58
484.00	469.89
485.00	501.19
486.00	519.91
487.00	1433.50
488.00	1127.27
489.00	567.14
490.00	393.75
491.00	354.97
492.00	350.68
493.00	388.86
494.00	331.61
495.00	327.35
496.00	505.95
497.00	381.02
498.00	329.22
499.00	315.68
500.00	457.78
501.00	560.37
502.00	390.07
503.00	332.43
504.00	367.41
505.00	426.92
506.00	462.27
507.00	416.01
508.00	409.69
509.00	360.67
510.00	339.36
511.00	324.95
512.00	324.46
513.00	357.08
514.00	501.29
515.00	382.72
516.00	348.49
517.00	326.63
518.00	360.86
519.00	339.34
520.00	301.14
521.00	304.46
522.00	323.31
523.00	299.39
524.00	312.48
525.00	325.31
526.00	312.39
527.00	303.52
528.00	303.72
529.00	295.48
530.00	290.22
531.00	307.45
532.00	318.52
533.00	322.02
534.00	329.70
535.00	347.95
536.00	337.30
537.00	337.24
538.00	331.91
539.00	320.88
540.00	312.95
541.00	323.58
542.00	324.58
543.00	319.96
544.00	328.60
545.00	349.31
546.00	347.20
547.00	357.86
548.00	337.19
549.00	401.00
550.00	391.30
551.00	358.89
552.00	335.24
553.00	327.58
554.00	322.17
555.00	353.15
556.00	371.25
557.00	337.81
558.00	298.46
559.00	302.88
560.00	338.66
561.00	313.80
562.00	294.84
563.00	277.94
564.00	292.67
565.00	335.29
566.00	312.74
567.00	321.17
568.00	324.03
569.00	324.25
570.00	312.77
571.00	304.69
572.00	280.64
573.00	287.40
574.00	309.81
575.00	289.27
576.00	280.03
577.00	298.11
578.00	291.13
579.00	278.55
580.00	284.48
581.00	266.38
582.00	264.06
583.00	282.05
584.00	276.15
585.00	265.75
586.00	284.59
587.00	279.88
588.00	308.88
589.00	341.84
590.00	297.79
591.00	296.45
592.00	280.32
593.00	292.50
594.00	272.04
595.00	260.40
596.00	265.09
597.00	271.33
598.00	279.94
599.00	286.96
600.00	291.98
601.00	303.12
602.00	315.79
603.00	511.39
604.00	443.63
605.00	352.62
606.00	326.87
607.00	275.19
608.00	256.06
609.00	260.99
610.00	292.56
611.00	371.98
612.00	345.78
613.00	283.66
614.00	276.94
615.00	290.38
616.00	281.42
617.00	374.83
618.00	306.09
619.00	280.58
620.00	269.09
621.00	298.25
622.00	277.52
623.00	252.44
624.00	296.44
625.00	303.12
626.00	281.42
627.00	280.30
628.00	274.78
629.00	280.25
630.00	290.01
631.00	290.20
632.00	264.38
633.00	249.93
634.00	250.29
635.00	245.01
636.00	254.68
637.00	254.13
638.00	259.84
639.00	262.88
640.00	270.97
641.00	285.88
642.00	324.67
643.00	274.79
644.00	259.07
645.00	264.84
646.00	265.05
647.00	261.29
648.00	263.15
649.00	255.13
650.00	246.32
651.00	245.23
652.00	245.68
653.00	252.35
654.00	256.71
655.00	253.40
656.00	510.09
657.00	467.97
658.00	328.97
659.00	262.01
660.00	248.80
661.00	245.38
662.00	236.10
663.00	232.14
664.00	312.48
665.00	317.12
666.00	255.05
667.00	245.88
668.00	272.61
669.00	282.23
670.00	243.41
671.00	233.81
672.00	233.47
673.00	233.03
674.00	236.13
675.00	307.14
676.00	329.98
677.00	254.59
678.00	233.90
679.00	232.47
680.00	229.19
681.00	228.07
682.00	228.67
683.00	230.23
684.00	229.93
685.00	221.84
686.00	231.99
687.00	281.51
688.00	271.47
689.00	265.44
690.00	240.15
691.00	230.80
692.00	229.42
693.00	236.52
694.00	277.45
695.00	259.06
696.00	317.03
697.00	594.70
698.00	339.43
699.00	264.90
700.00	247.92
701.00	237.45
702.00	236.59
703.00	300.03
704.00	285.28
705.00	250.18
706.00	240.68
707.00	471.33
708.00	327.79
709.00	251.77
710.00	222.88
711.00	235.69
712.00	227.26
713.00	225.78
714.00	223.18
715.00	257.65
716.00	243.42
717.00	229.56
718.00	223.42
719.00	221.29
720.00	226.81
721.00	234.72
722.00	223.67
723.00	225.56
724.00	234.92
725.00	251.06
726.00	232.67
727.00	257.14
728.00	292.40
729.00	245.54
730.00	230.28
731.00	227.98
732.00	234.60
733.00	221.96
734.00	222.84
735.00	231.30
736.00	260.74
737.00	283.32
738.00	392.70
739.00	570.58
740.00	330.86
741.00	253.51
742.00	230.04
743.00	225.15
744.00	243.29
745.00	235.89
746.00	220.55
747.00	218.64
748.00	219.18
749.00	229.31
750.00	361.35
751.00	1194.96
752.00	916.33
753.00	456.63
754.00	276.06
755.00	224.12
756.00	221.06
757.00	219.08
758.00	218.81
759.00	223.49
760.00	223.62
761.00	221.79
762.00	224.19
763.00	294.32
764.00	1990.01
765.00	928.14
766.00	452.88
767.00	251.85
768.00	222.31
769.00	212.48
770.00	215.97
771.00	216.84
772.00	239.55
773.00	584.63
774.00	348.73
775.00	267.69
776.00	220.57
777.00	249.00
778.00	480.05
779.00	315.60
780.00	248.51
781.00	215.87
782.00	212.30
783.00	211.20
784.00	209.94
785.00	217.24
786.00	221.03
787.00	231.88
788.00	216.04
789.00	226.95
790.00	231.73
791.00	223.12
792.00	229.68
793.00	222.91
794.00	216.33
795.00	467.25
796.00	498.95
797.00	308.67
798.00	247.56
799.00	219.52
800.00	218.70
801.00	442.35
802.00	776.46
803.00	472.56
804.00	293.11
805.00	235.69
806.00	222.60
807.00	218.00
808.00	219.86
809.00	221.35
810.00	242.01
811.00	706.50
812.00	3657.43
813.00	2208.17
814.00	842.68
815.00	439.37
816.00	233.71
817.00	221.22
818.00	214.22
819.00	213.59
820.00	209.24
821.00	213.03
822.00	211.42
823.00	209.09
824.00	208.11
825.00	218.60
826.00	213.31
827.00	367.18
828.00	299.86
829.00	243.06
830.00	221.08
831.00	207.36
832.00	205.21
833.00	212.80
834.00	208.93
835.00	212.06
836.00	211.23
837.00	211.62
838.00	210.31
839.00	212.03
840.00	214.28
841.00	334.78
842.00	408.72
843.00	760.32
844.00	486.86
845.00	324.08
846.00	272.05
847.00	216.41
848.00	211.86
849.00	205.43
850.00	209.28
851.00	206.65
852.00	222.42
853.00	333.03
854.00	246.97
855.00	224.84
856.00	222.08
857.00	210.51
858.00	207.45
859.00	208.16
860.00	203.62
861.00	213.16
862.00	212.42
863.00	211.55
864.00	215.32
865.00	214.79
866.00	207.73
867.00	211.67
868.00	226.04
869.00	216.66
870.00	211.01
871.00	212.86
872.00	206.06
873.00	210.88
874.00	208.54
875.00	206.53
876.00	204.01
877.00	211.95
878.00	211.49
879.00	205.02
880.00	206.02
881.00	206.76
882.00	208.32
883.00	206.53
884.00	205.00
885.00	206.20
886.00	202.75
887.00	208.22
888.00	202.98
889.00	211.36
890.00	204.91
891.00	209.30
892.00	208.16
893.00	208.85
894.00	206.40
895.00	209.59
896.00	206.57
897.00	202.85
898.00	203.76
899.00	205.54
900.00	204.94
901.00	206.17
902.00	207.77
903.00	210.25
904.00	204.68
905.00	209.11
906.00	209.91
907.00	204.63
908.00	210.01
909.00	209.00
910.00	208.87
911.00	210.51
912.00	240.65
913.00	450.96
914.00	342.22
915.00	285.62
916.00	253.09
917.00	224.80
918.00	209.44
919.00	205.36
920.00	211.32
921.00	206.70
922.00	210.85
923.00	241.43
924.00	230.73
925.00	222.88
926.00	212.99
927.00	210.36
928.00	203.10
929.00	206.15
930.00	208.07
931.00	206.82
932.00	202.12
933.00	203.31
934.00	200.24
935.00	204.02
936.00	197.30
937.00	206.02
938.00	207.14
939.00	207.63
940.00	205.04
941.00	210.21
942.00	211.93
943.00	204.04
944.00	204.38
945.00	211.01
946.00	204.49
947.00	203.97
948.00	202.71
949.00	203.85
950.00	209.45
951.00	207.94
952.00	204.93
953.00	204.89
954.00	201.84
955.00	199.61
956.00	203.50
957.00	205.87
958.00	201.01
959.00	202.93
960.00	204.65
961.00	204.53
962.00	205.54
963.00	200.64
964.00	205.39
965.00	203.59
966.00	206.34
967.00	215.94
968.00	216.97
969.00	211.16
970.00	206.16
971.00	207.82
972.00	202.44
973.00	203.39
974.00	204.66
975.00	201.67
976.00	206.79
977.00	205.23
978.00	206.43
979.00	206.17
980.00	207.23
981.00	201.25
982.00	205.57
983.00	206.23
984.00	201.25
985.00	206.90
986.00	204.53
987.00	207.83
988.00	203.89
989.00	205.35
990.00	198.38
991.00	201.53
992.00	205.52
993.00	207.38
994.00	202.81
995.00	203.82
996.00	203.68
997.00	204.87
998.00	206.18
999.00	202.54
1000.00	200.21
>>>>>End Processed Spectral Data<<<<<
