SpectraSuite Data File
++++++++++++++++++++++++++++++++++++
Date: Tue Oct 18 14:26:37 CDT 2011
User: Helimak
Dark Spectrum Present: No
Reference Spectrum Present: No
Number of Sampled Component Spectra: 1
Spectrometers: USB2G37154
Integration Time (usec): 100000 (USB2G37154)
Spectra Averaged: 1 (USB2G37154)
Boxcar Smoothing: 0 (USB2G37154)
Correct for Electrical Dark: No (USB2G37154)
Strobe/Lamp Enabled: No (USB2G37154)
Correct for Detector Non-linearity: No (USB2G37154)
Correct for Stray Light: No (USB2G37154)
Number of Pixels in Processed Spectrum: 651
>>>>>Begin Processed Spectral Data<<<<<
350.00	205.32
351.00	201.06
352.00	200.87
353.00	198.57
354.00	202.37
355.00	203.14
356.00	202.47
357.00	213.17
358.00	206.48
359.00	203.49
360.00	201.24
361.00	204.12
362.00	205.90
363.00	204.17
364.00	205.54
365.00	203.59
366.00	203.24
367.00	205.04
368.00	205.03
369.00	204.39
370.00	204.98
371.00	204.35
372.00	204.04
373.00	204.28
374.00	201.79
375.00	207.75
376.00	206.72
377.00	203.64
378.00	203.97
379.00	204.03
380.00	201.56
381.00	206.02
382.00	204.15
383.00	200.80
384.00	204.87
385.00	203.61
386.00	205.00
387.00	204.20
388.00	204.46
389.00	207.57
390.00	204.36
391.00	206.62
392.00	204.79
393.00	203.82
394.00	204.68
395.00	207.81
396.00	201.82
397.00	202.70
398.00	203.81
399.00	205.10
400.00	202.55
401.00	205.97
402.00	203.34
403.00	206.37
404.00	204.64
405.00	205.36
406.00	203.00
407.00	204.95
408.00	207.36
409.00	203.34
410.00	203.34
411.00	204.21
412.00	205.30
413.00	207.04
414.00	207.99
415.00	209.04
416.00	207.16
417.00	204.99
418.00	205.27
419.00	203.07
420.00	207.97
421.00	203.04
422.00	203.07
423.00	201.04
424.00	206.48
425.00	207.54
426.00	203.20
427.00	207.96
428.00	203.65
429.00	205.24
430.00	208.06
431.00	203.21
432.00	205.45
433.00	205.05
434.00	205.02
435.00	206.35
436.00	206.85
437.00	209.39
438.00	207.71
439.00	200.18
440.00	206.58
441.00	198.96
442.00	203.73
443.00	207.40
444.00	209.13
445.00	207.97
446.00	207.25
447.00	204.80
448.00	205.16
449.00	202.99
450.00	205.44
451.00	207.65
452.00	204.23
453.00	206.67
454.00	202.77
455.00	206.03
456.00	206.24
457.00	209.38
458.00	202.73
459.00	207.42
460.00	209.39
461.00	205.38
462.00	206.09
463.00	204.13
464.00	203.10
465.00	208.01
466.00	206.28
467.00	205.76
468.00	206.10
469.00	204.26
470.00	203.88
471.00	207.07
472.00	203.98
473.00	209.51
474.00	206.11
475.00	206.05
476.00	205.07
477.00	203.32
478.00	202.73
479.00	199.76
480.00	203.78
481.00	204.97
482.00	202.40
483.00	204.30
484.00	206.38
485.00	200.81
486.00	206.43
487.00	206.22
488.00	206.11
489.00	205.99
490.00	206.85
491.00	202.36
492.00	206.69
493.00	205.86
494.00	206.69
495.00	205.28
496.00	202.49
497.00	202.61
498.00	203.80
499.00	205.44
500.00	204.22
501.00	206.11
502.00	206.02
503.00	201.43
504.00	207.18
505.00	206.13
506.00	202.76
507.00	207.16
508.00	206.06
509.00	202.61
510.00	203.66
511.00	199.97
512.00	208.76
513.00	204.64
514.00	203.40
515.00	203.83
516.00	201.98
517.00	203.70
518.00	204.55
519.00	205.53
520.00	203.13
521.00	207.43
522.00	209.60
523.00	203.87
524.00	202.70
525.00	205.89
526.00	205.51
527.00	203.88
528.00	205.45
529.00	204.83
530.00	203.91
531.00	203.69
532.00	204.20
533.00	205.38
534.00	204.63
535.00	203.08
536.00	207.89
537.00	204.13
538.00	202.94
539.00	204.52
540.00	206.11
541.00	206.04
542.00	202.48
543.00	207.22
544.00	205.93
545.00	201.43
546.00	207.99
547.00	203.63
548.00	206.85
549.00	204.55
550.00	206.78
551.00	201.03
552.00	205.52
553.00	204.35
554.00	200.37
555.00	202.63
556.00	203.55
557.00	201.96
558.00	203.34
559.00	202.50
560.00	202.89
561.00	206.13
562.00	207.00
563.00	202.38
564.00	205.16
565.00	202.12
566.00	202.60
567.00	201.58
568.00	205.96
569.00	202.98
570.00	205.47
571.00	211.86
572.00	200.58
573.00	208.27
574.00	200.01
575.00	202.01
576.00	204.59
577.00	200.88
578.00	205.45
579.00	204.80
580.00	204.27
581.00	202.07
582.00	201.61
583.00	206.80
584.00	205.58
585.00	203.44
586.00	205.68
587.00	204.91
588.00	200.44
589.00	207.19
590.00	204.79
591.00	197.56
592.00	200.70
593.00	205.02
594.00	202.02
595.00	198.09
596.00	203.92
597.00	201.47
598.00	206.77
599.00	202.40
600.00	204.11
601.00	207.94
602.00	203.96
603.00	203.88
604.00	203.37
605.00	203.58
606.00	205.02
607.00	200.44
608.00	202.50
609.00	199.94
610.00	201.79
611.00	202.18
612.00	202.59
613.00	204.83
614.00	204.12
615.00	206.23
616.00	205.26
617.00	204.99
618.00	206.93
619.00	205.93
620.00	205.86
621.00	206.47
622.00	206.01
623.00	202.12
624.00	200.65
625.00	205.89
626.00	199.15
627.00	203.71
628.00	204.00
629.00	205.62
630.00	203.78
631.00	207.48
632.00	205.32
633.00	201.64
634.00	205.23
635.00	204.98
636.00	202.49
637.00	207.04
638.00	207.45
639.00	203.64
640.00	209.17
641.00	202.68
642.00	204.97
643.00	206.62
644.00	203.50
645.00	203.02
646.00	205.02
647.00	198.74
648.00	207.42
649.00	200.11
650.00	201.36
651.00	204.08
652.00	199.66
653.00	200.69
654.00	201.43
655.00	204.93
656.00	199.77
657.00	201.01
658.00	209.00
659.00	199.79
660.00	200.12
661.00	202.80
662.00	201.93
663.00	201.99
664.00	207.82
665.00	207.62
666.00	205.43
667.00	204.30
668.00	205.49
669.00	207.35
670.00	203.23
671.00	202.50
672.00	202.02
673.00	204.00
674.00	200.11
675.00	202.37
676.00	201.21
677.00	201.54
678.00	202.38
679.00	206.61
680.00	208.20
681.00	203.76
682.00	201.04
683.00	201.88
684.00	209.63
685.00	205.95
686.00	203.74
687.00	204.91
688.00	205.32
689.00	204.05
690.00	204.06
691.00	206.98
692.00	196.64
693.00	201.78
694.00	206.17
695.00	202.09
696.00	201.00
697.00	206.95
698.00	201.99
699.00	202.01
700.00	205.12
701.00	206.39
702.00	207.33
703.00	203.81
704.00	202.47
705.00	204.12
706.00	202.90
707.00	204.77
708.00	199.44
709.00	203.16
710.00	202.48
711.00	202.20
712.00	207.32
713.00	203.83
714.00	204.61
715.00	199.20
716.00	203.91
717.00	204.10
718.00	200.82
719.00	201.94
720.00	208.60
721.00	201.90
722.00	201.35
723.00	200.25
724.00	201.61
725.00	212.20
726.00	204.82
727.00	203.14
728.00	206.73
729.00	204.12
730.00	203.07
731.00	204.46
732.00	203.23
733.00	201.57
734.00	204.17
735.00	202.56
736.00	203.53
737.00	200.58
738.00	202.10
739.00	200.97
740.00	206.97
741.00	201.94
742.00	203.97
743.00	203.97
744.00	207.85
745.00	207.08
746.00	202.47
747.00	198.76
748.00	206.00
749.00	203.38
750.00	203.70
751.00	200.74
752.00	203.79
753.00	201.58
754.00	206.18
755.00	204.36
756.00	203.01
757.00	202.93
758.00	206.08
759.00	198.21
760.00	202.12
761.00	200.97
762.00	205.13
763.00	204.88
764.00	199.02
765.00	202.91
766.00	202.50
767.00	203.90
768.00	203.19
769.00	207.12
770.00	204.22
771.00	201.68
772.00	202.08
773.00	203.31
774.00	200.37
775.00	204.41
776.00	201.28
777.00	204.80
778.00	200.00
779.00	208.77
780.00	201.32
781.00	203.66
782.00	203.23
783.00	201.05
784.00	204.47
785.00	202.43
786.00	204.56
787.00	203.45
788.00	206.78
789.00	202.00
790.00	202.95
791.00	208.72
792.00	202.96
793.00	199.64
794.00	205.29
795.00	200.83
796.00	199.50
797.00	204.40
798.00	209.85
799.00	201.86
800.00	203.22
801.00	201.98
802.00	202.54
803.00	207.28
804.00	203.75
805.00	200.89
806.00	205.68
807.00	200.96
808.00	200.07
809.00	203.85
810.00	203.62
811.00	202.50
812.00	201.87
813.00	205.07
814.00	207.21
815.00	204.79
816.00	203.93
817.00	207.00
818.00	203.30
819.00	202.74
820.00	202.21
821.00	201.97
822.00	202.81
823.00	201.80
824.00	201.23
825.00	206.01
826.00	202.31
827.00	200.76
828.00	203.89
829.00	203.98
830.00	204.90
831.00	205.49
832.00	210.56
833.00	203.12
834.00	198.55
835.00	200.16
836.00	203.30
837.00	201.40
838.00	203.22
839.00	204.05
840.00	203.37
841.00	203.81
842.00	201.57
843.00	207.59
844.00	205.69
845.00	202.38
846.00	204.94
847.00	205.85
848.00	203.92
849.00	203.66
850.00	200.00
851.00	204.83
852.00	204.19
853.00	201.89
854.00	200.85
855.00	205.86
856.00	207.68
857.00	203.95
858.00	204.02
859.00	206.18
860.00	201.63
861.00	207.71
862.00	204.10
863.00	203.33
864.00	205.05
865.00	200.89
866.00	192.33
867.00	201.74
868.00	201.99
869.00	204.93
870.00	200.49
871.00	203.50
872.00	202.04
873.00	205.99
874.00	201.88
875.00	203.27
876.00	202.28
877.00	202.24
878.00	206.84
879.00	202.60
880.00	199.00
881.00	201.52
882.00	203.94
883.00	205.01
884.00	205.01
885.00	204.50
886.00	203.42
887.00	200.87
888.00	208.94
889.00	204.08
890.00	198.39
891.00	210.86
892.00	202.43
893.00	201.93
894.00	192.15
895.00	207.76
896.00	201.62
897.00	203.19
898.00	202.89
899.00	204.22
900.00	203.28
901.00	202.09
902.00	205.19
903.00	209.10
904.00	205.12
905.00	206.03
906.00	204.66
907.00	204.46
908.00	205.24
909.00	201.21
910.00	203.99
911.00	203.23
912.00	201.15
913.00	203.65
914.00	204.22
915.00	202.59
916.00	203.80
917.00	205.62
918.00	202.91
919.00	207.24
920.00	204.10
921.00	205.39
922.00	202.75
923.00	204.21
924.00	204.18
925.00	199.82
926.00	204.00
927.00	203.27
928.00	201.83
929.00	201.34
930.00	204.70
931.00	200.20
932.00	200.45
933.00	201.82
934.00	204.18
935.00	198.29
936.00	200.57
937.00	202.97
938.00	202.15
939.00	202.72
940.00	204.63
941.00	200.45
942.00	200.98
943.00	199.69
944.00	204.82
945.00	204.16
946.00	202.41
947.00	199.99
948.00	201.03
949.00	205.49
950.00	204.85
951.00	204.62
952.00	200.95
953.00	201.43
954.00	200.74
955.00	204.44
956.00	202.93
957.00	200.96
958.00	203.87
959.00	200.94
960.00	203.60
961.00	200.61
962.00	199.04
963.00	204.49
964.00	204.21
965.00	199.23
966.00	203.74
967.00	201.92
968.00	204.01
969.00	207.11
970.00	203.29
971.00	204.71
972.00	207.23
973.00	206.21
974.00	202.74
975.00	203.43
976.00	205.56
977.00	201.99
978.00	203.33
979.00	188.63
980.00	199.14
981.00	202.32
982.00	200.97
983.00	208.92
984.00	199.54
985.00	211.34
986.00	204.69
987.00	198.63
988.00	205.25
989.00	203.79
990.00	203.79
991.00	201.92
992.00	200.24
993.00	205.45
994.00	202.01
995.00	199.12
996.00	202.17
997.00	203.66
998.00	203.76
999.00	200.91
1000.00	205.88
>>>>>End Processed Spectral Data<<<<<
