SpectraSuite Data File
++++++++++++++++++++++++++++++++++++
Date: Tue Oct 18 14:35:50 CDT 2011
User: Helimak
Dark Spectrum Present: No
Reference Spectrum Present: No
Number of Sampled Component Spectra: 1
Spectrometers: USB2G37154
Integration Time (usec): 200000 (USB2G37154)
Spectra Averaged: 1 (USB2G37154)
Boxcar Smoothing: 0 (USB2G37154)
Correct for Electrical Dark: No (USB2G37154)
Strobe/Lamp Enabled: No (USB2G37154)
Correct for Detector Non-linearity: No (USB2G37154)
Correct for Stray Light: No (USB2G37154)
Number of Pixels in Processed Spectrum: 651
>>>>>Begin Processed Spectral Data<<<<<
350.00	204.01
351.00	202.87
352.00	203.79
353.00	202.34
354.00	206.50
355.00	205.71
356.00	207.95
357.00	203.90
358.00	212.90
359.00	209.29
360.00	205.45
361.00	205.66
362.00	210.09
363.00	206.41
364.00	206.95
365.00	208.11
366.00	210.15
367.00	204.72
368.00	207.45
369.00	210.35
370.00	213.04
371.00	213.73
372.00	216.31
373.00	215.87
374.00	211.33
375.00	216.30
376.00	218.42
377.00	220.61
378.00	224.38
379.00	225.34
380.00	231.98
381.00	229.78
382.00	226.31
383.00	236.81
384.00	240.76
385.00	237.23
386.00	242.07
387.00	242.26
388.00	231.30
389.00	224.42
390.00	231.67
391.00	235.14
392.00	242.66
393.00	242.56
394.00	249.88
395.00	236.22
396.00	236.96
397.00	232.74
398.00	230.07
399.00	239.18
400.00	268.97
401.00	285.46
402.00	284.21
403.00	295.06
404.00	303.22
405.00	277.27
406.00	309.07
407.00	319.31
408.00	274.28
409.00	275.56
410.00	283.24
411.00	247.85
412.00	259.21
413.00	256.33
414.00	250.21
415.00	338.69
416.00	304.42
417.00	274.72
418.00	313.09
419.00	471.07
420.00	375.24
421.00	276.43
422.00	322.48
423.00	297.16
424.00	274.04
425.00	409.39
426.00	503.09
427.00	498.07
428.00	356.88
429.00	335.29
430.00	319.49
431.00	283.66
432.00	354.16
433.00	455.92
434.00	1099.30
435.00	647.21
436.00	425.46
437.00	394.25
438.00	328.06
439.00	412.92
440.00	366.93
441.00	365.03
442.00	718.37
443.00	456.27
444.00	304.11
445.00	259.98
446.00	255.26
447.00	302.55
448.00	282.57
449.00	269.18
450.00	292.47
451.00	292.53
452.00	285.78
453.00	311.93
454.00	416.32
455.00	331.73
456.00	317.80
457.00	375.71
458.00	538.42
459.00	432.62
460.00	714.76
461.00	492.52
462.00	340.96
463.00	290.02
464.00	274.23
465.00	375.23
466.00	312.90
467.00	278.19
468.00	274.51
469.00	276.84
470.00	275.61
471.00	278.70
472.00	404.66
473.00	436.00
474.00	312.98
475.00	302.66
476.00	440.85
477.00	314.35
478.00	268.30
479.00	289.24
480.00	794.16
481.00	430.99
482.00	302.32
483.00	273.43
484.00	384.24
485.00	401.36
486.00	408.19
487.00	1056.26
488.00	829.26
489.00	457.55
490.00	337.64
491.00	307.57
492.00	308.08
493.00	324.24
494.00	290.89
495.00	281.97
496.00	402.38
497.00	324.38
498.00	284.38
499.00	283.79
500.00	374.05
501.00	446.42
502.00	328.05
503.00	291.73
504.00	320.67
505.00	350.58
506.00	378.64
507.00	355.12
508.00	330.88
509.00	314.17
510.00	286.53
511.00	286.05
512.00	283.13
513.00	295.20
514.00	410.40
515.00	320.99
516.00	312.13
517.00	293.89
518.00	322.27
519.00	294.00
520.00	271.75
521.00	275.00
522.00	287.03
523.00	267.35
524.00	275.01
525.00	282.44
526.00	282.24
527.00	272.48
528.00	270.39
529.00	266.07
530.00	262.17
531.00	272.44
532.00	281.20
533.00	277.47
534.00	287.50
535.00	302.43
536.00	290.16
537.00	290.40
538.00	287.02
539.00	282.56
540.00	279.09
541.00	282.27
542.00	296.93
543.00	285.58
544.00	290.30
545.00	312.26
546.00	303.82
547.00	308.44
548.00	295.08
549.00	359.47
550.00	345.89
551.00	312.96
552.00	291.27
553.00	285.59
554.00	281.60
555.00	313.80
556.00	327.55
557.00	303.26
558.00	274.08
559.00	268.08
560.00	304.96
561.00	282.58
562.00	267.62
563.00	263.85
564.00	266.00
565.00	297.59
566.00	285.44
567.00	284.83
568.00	286.13
569.00	285.90
570.00	277.93
571.00	273.12
572.00	259.31
573.00	265.92
574.00	283.50
575.00	255.15
576.00	253.74
577.00	270.70
578.00	264.93
579.00	256.21
580.00	262.73
581.00	248.35
582.00	246.54
583.00	262.75
584.00	250.89
585.00	245.52
586.00	256.15
587.00	262.19
588.00	286.90
589.00	309.09
590.00	268.47
591.00	273.05
592.00	261.90
593.00	271.95
594.00	264.04
595.00	253.52
596.00	239.62
597.00	249.17
598.00	255.24
599.00	264.09
600.00	269.65
601.00	273.18
602.00	281.71
603.00	453.81
604.00	392.80
605.00	321.66
606.00	297.81
607.00	254.36
608.00	240.32
609.00	242.02
610.00	276.36
611.00	329.16
612.00	308.95
613.00	259.84
614.00	256.44
615.00	264.00
616.00	260.48
617.00	334.84
618.00	270.69
619.00	262.06
620.00	249.71
621.00	272.00
622.00	256.62
623.00	238.79
624.00	266.36
625.00	275.45
626.00	256.09
627.00	246.36
628.00	254.01
629.00	256.21
630.00	269.84
631.00	271.23
632.00	247.80
633.00	239.77
634.00	232.49
635.00	231.07
636.00	240.43
637.00	237.01
638.00	240.23
639.00	241.52
640.00	248.44
641.00	264.83
642.00	298.49
643.00	253.92
644.00	244.52
645.00	241.20
646.00	245.98
647.00	237.96
648.00	245.74
649.00	236.87
650.00	232.57
651.00	228.13
652.00	231.12
653.00	227.94
654.00	238.28
655.00	239.34
656.00	406.36
657.00	368.40
658.00	291.98
659.00	240.03
660.00	235.79
661.00	233.75
662.00	218.71
663.00	220.42
664.00	275.95
665.00	280.33
666.00	241.13
667.00	235.00
668.00	251.23
669.00	256.94
670.00	233.93
671.00	224.80
672.00	231.11
673.00	229.00
674.00	226.02
675.00	282.86
676.00	304.11
677.00	242.75
678.00	224.68
679.00	223.36
680.00	221.53
681.00	220.45
682.00	222.50
683.00	221.04
684.00	225.79
685.00	223.97
686.00	222.78
687.00	262.04
688.00	256.93
689.00	245.54
690.00	227.38
691.00	224.91
692.00	219.83
693.00	224.73
694.00	258.67
695.00	247.22
696.00	287.02
697.00	521.98
698.00	306.33
699.00	246.04
700.00	230.28
701.00	228.70
702.00	226.78
703.00	275.16
704.00	263.97
705.00	236.91
706.00	223.83
707.00	422.15
708.00	292.59
709.00	244.53
710.00	218.84
711.00	226.50
712.00	230.93
713.00	218.77
714.00	220.71
715.00	243.87
716.00	228.61
717.00	219.13
718.00	213.93
719.00	214.93
720.00	220.62
721.00	224.82
722.00	222.70
723.00	223.62
724.00	221.97
725.00	239.15
726.00	221.32
727.00	237.76
728.00	275.07
729.00	232.89
730.00	220.98
731.00	224.09
732.00	223.90
733.00	213.04
734.00	217.33
735.00	226.01
736.00	249.89
737.00	267.46
738.00	354.16
739.00	486.44
740.00	302.54
741.00	238.26
742.00	222.98
743.00	226.96
744.00	230.20
745.00	231.26
746.00	213.36
747.00	214.10
748.00	222.41
749.00	224.87
750.00	309.89
751.00	997.55
752.00	753.36
753.00	405.42
754.00	262.39
755.00	220.43
756.00	212.81
757.00	218.10
758.00	215.83
759.00	218.51
760.00	215.67
761.00	212.46
762.00	221.50
763.00	267.27
764.00	1619.29
765.00	784.42
766.00	411.10
767.00	244.95
768.00	219.02
769.00	212.98
770.00	207.38
771.00	208.83
772.00	228.78
773.00	498.71
774.00	318.62
775.00	248.89
776.00	214.51
777.00	228.24
778.00	359.03
779.00	268.01
780.00	229.46
781.00	211.90
782.00	209.38
783.00	209.01
784.00	208.74
785.00	209.07
786.00	218.28
787.00	216.66
788.00	217.61
789.00	219.92
790.00	224.90
791.00	219.96
792.00	219.22
793.00	212.63
794.00	215.19
795.00	397.34
796.00	433.60
797.00	276.46
798.00	243.68
799.00	212.51
800.00	210.06
801.00	383.71
802.00	640.08
803.00	413.33
804.00	280.80
805.00	235.00
806.00	214.97
807.00	213.98
808.00	219.12
809.00	220.20
810.00	236.77
811.00	597.26
812.00	2951.43
813.00	1811.47
814.00	736.66
815.00	394.92
816.00	230.69
817.00	216.83
818.00	209.35
819.00	210.01
820.00	205.93
821.00	208.95
822.00	212.41
823.00	208.31
824.00	207.63
825.00	218.24
826.00	209.91
827.00	339.16
828.00	277.37
829.00	236.28
830.00	217.54
831.00	209.55
832.00	207.05
833.00	209.89
834.00	210.12
835.00	207.02
836.00	204.52
837.00	210.48
838.00	206.31
839.00	204.80
840.00	210.53
841.00	306.56
842.00	361.00
843.00	634.44
844.00	424.63
845.00	304.75
846.00	257.66
847.00	217.30
848.00	210.83
849.00	204.73
850.00	206.21
851.00	201.99
852.00	218.71
853.00	307.08
854.00	234.36
855.00	219.19
856.00	217.53
857.00	208.89
858.00	204.52
859.00	200.99
860.00	205.39
861.00	210.55
862.00	206.64
863.00	205.73
864.00	215.82
865.00	212.03
866.00	206.19
867.00	214.46
868.00	217.04
869.00	207.63
870.00	208.58
871.00	211.57
872.00	207.74
873.00	205.70
874.00	205.25
875.00	205.87
876.00	208.22
877.00	204.64
878.00	206.88
879.00	206.88
880.00	204.91
881.00	200.97
882.00	203.39
883.00	207.56
884.00	206.00
885.00	207.30
886.00	207.49
887.00	200.63
888.00	204.15
889.00	205.65
890.00	205.28
891.00	207.91
892.00	204.05
893.00	203.42
894.00	206.54
895.00	208.68
896.00	203.29
897.00	204.60
898.00	207.91
899.00	205.55
900.00	202.36
901.00	205.23
902.00	203.56
903.00	206.41
904.00	203.57
905.00	204.17
906.00	206.01
907.00	212.45
908.00	206.50
909.00	205.38
910.00	207.07
911.00	210.57
912.00	224.43
913.00	397.26
914.00	313.67
915.00	266.52
916.00	241.23
917.00	220.92
918.00	205.68
919.00	206.14
920.00	202.64
921.00	206.12
922.00	205.25
923.00	227.75
924.00	226.83
925.00	219.40
926.00	208.98
927.00	210.48
928.00	206.48
929.00	208.66
930.00	203.84
931.00	201.63
932.00	201.24
933.00	201.50
934.00	200.13
935.00	203.46
936.00	202.06
937.00	202.31
938.00	204.00
939.00	200.79
940.00	204.63
941.00	201.47
942.00	210.86
943.00	205.88
944.00	204.74
945.00	209.32
946.00	205.24
947.00	203.01
948.00	203.39
949.00	204.91
950.00	202.41
951.00	203.29
952.00	204.01
953.00	205.29
954.00	205.63
955.00	205.28
956.00	202.93
957.00	205.25
958.00	204.48
959.00	197.90
960.00	202.06
961.00	204.98
962.00	205.35
963.00	206.99
964.00	191.56
965.00	204.17
966.00	205.78
967.00	209.53
968.00	209.97
969.00	208.46
970.00	207.20
971.00	207.11
972.00	204.69
973.00	210.09
974.00	205.19
975.00	204.35
976.00	206.35
977.00	201.59
978.00	202.15
979.00	203.61
980.00	199.17
981.00	203.65
982.00	205.46
983.00	211.42
984.00	195.87
985.00	202.36
986.00	205.68
987.00	205.37
988.00	203.96
989.00	200.87
990.00	204.81
991.00	204.06
992.00	205.40
993.00	201.06
994.00	201.10
995.00	203.51
996.00	204.84
997.00	206.65
998.00	203.99
999.00	207.54
1000.00	204.92
>>>>>End Processed Spectral Data<<<<<
