SpectraSuite Data File
++++++++++++++++++++++++++++++++++++
Date: Tue Oct 18 14:43:24 CDT 2011
User: Helimak
Dark Spectrum Present: No
Reference Spectrum Present: No
Number of Sampled Component Spectra: 1
Spectrometers: USB2G37154
Integration Time (usec): 200000 (USB2G37154)
Spectra Averaged: 1 (USB2G37154)
Boxcar Smoothing: 0 (USB2G37154)
Correct for Electrical Dark: No (USB2G37154)
Strobe/Lamp Enabled: No (USB2G37154)
Correct for Detector Non-linearity: No (USB2G37154)
Correct for Stray Light: No (USB2G37154)
Number of Pixels in Processed Spectrum: 651
>>>>>Begin Processed Spectral Data<<<<<
350.00	203.00
351.00	201.75
352.00	203.94
353.00	205.46
354.00	204.43
355.00	203.86
356.00	207.09
357.00	210.03
358.00	210.48
359.00	211.77
360.00	213.07
361.00	213.48
362.00	209.91
363.00	208.35
364.00	214.95
365.00	208.42
366.00	206.78
367.00	208.98
368.00	211.29
369.00	214.60
370.00	218.06
371.00	216.57
372.00	222.51
373.00	218.41
374.00	217.83
375.00	221.12
376.00	220.17
377.00	229.00
378.00	237.91
379.00	235.15
380.00	243.83
381.00	238.98
382.00	244.52
383.00	246.44
384.00	256.32
385.00	258.69
386.00	257.99
387.00	257.58
388.00	247.48
389.00	238.22
390.00	243.13
391.00	246.12
392.00	260.81
393.00	262.01
394.00	269.67
395.00	246.28
396.00	253.95
397.00	245.20
398.00	245.83
399.00	256.40
400.00	298.90
401.00	333.39
402.00	317.65
403.00	334.72
404.00	346.71
405.00	305.16
406.00	343.06
407.00	374.81
408.00	303.07
409.00	300.87
410.00	318.14
411.00	278.99
412.00	294.35
413.00	287.37
414.00	273.34
415.00	366.26
416.00	331.45
417.00	294.67
418.00	342.48
419.00	537.41
420.00	418.45
421.00	314.49
422.00	390.48
423.00	333.51
424.00	304.36
425.00	471.45
426.00	607.63
427.00	602.25
428.00	426.89
429.00	392.91
430.00	373.35
431.00	325.22
432.00	419.83
433.00	567.49
434.00	1552.64
435.00	904.46
436.00	526.11
437.00	483.59
438.00	373.07
439.00	516.80
440.00	454.34
441.00	440.41
442.00	978.74
443.00	576.86
444.00	357.37
445.00	286.87
446.00	284.08
447.00	337.54
448.00	321.64
449.00	301.04
450.00	319.79
451.00	318.90
452.00	322.89
453.00	353.18
454.00	506.32
455.00	395.87
456.00	363.73
457.00	473.98
458.00	688.22
459.00	534.31
460.00	929.05
461.00	641.82
462.00	400.37
463.00	328.47
464.00	305.92
465.00	436.88
466.00	360.27
467.00	307.52
468.00	308.23
469.00	312.49
470.00	311.73
471.00	318.55
472.00	496.22
473.00	546.45
474.00	374.14
475.00	345.24
476.00	545.51
477.00	366.00
478.00	304.26
479.00	333.77
480.00	1126.24
481.00	555.72
482.00	355.45
483.00	307.54
484.00	465.37
485.00	498.08
486.00	511.93
487.00	1417.59
488.00	1139.73
489.00	564.32
490.00	402.47
491.00	351.57
492.00	352.79
493.00	387.03
494.00	333.59
495.00	326.95
496.00	500.33
497.00	383.31
498.00	325.26
499.00	320.18
500.00	456.19
501.00	542.76
502.00	390.08
503.00	328.51
504.00	367.89
505.00	420.72
506.00	456.79
507.00	422.00
508.00	403.02
509.00	365.66
510.00	328.41
511.00	324.99
512.00	323.65
513.00	350.09
514.00	505.76
515.00	385.80
516.00	349.51
517.00	318.52
518.00	365.74
519.00	339.16
520.00	295.39
521.00	299.74
522.00	322.27
523.00	303.41
524.00	310.57
525.00	335.41
526.00	313.97
527.00	302.88
528.00	303.38
529.00	293.68
530.00	289.97
531.00	305.53
532.00	320.02
533.00	325.38
534.00	328.93
535.00	348.88
536.00	339.21
537.00	339.40
538.00	330.29
539.00	320.55
540.00	322.45
541.00	324.90
542.00	326.65
543.00	319.56
544.00	332.84
545.00	351.18
546.00	341.19
547.00	355.05
548.00	337.66
549.00	407.07
550.00	388.89
551.00	356.98
552.00	336.37
553.00	323.34
554.00	316.64
555.00	354.16
556.00	370.44
557.00	342.81
558.00	299.27
559.00	301.52
560.00	333.51
561.00	316.00
562.00	286.96
563.00	286.06
564.00	292.97
565.00	327.74
566.00	321.07
567.00	322.22
568.00	325.98
569.00	317.79
570.00	310.77
571.00	302.24
572.00	287.09
573.00	296.54
574.00	312.12
575.00	280.16
576.00	279.79
577.00	296.30
578.00	286.47
579.00	277.81
580.00	288.17
581.00	273.22
582.00	259.91
583.00	274.27
584.00	276.41
585.00	273.16
586.00	282.26
587.00	289.05
588.00	319.34
589.00	345.38
590.00	296.91
591.00	298.53
592.00	283.94
593.00	298.92
594.00	279.02
595.00	261.30
596.00	262.48
597.00	273.92
598.00	277.71
599.00	290.10
600.00	290.23
601.00	302.19
602.00	309.34
603.00	506.58
604.00	441.63
605.00	353.96
606.00	330.21
607.00	267.28
608.00	260.99
609.00	257.88
610.00	295.79
611.00	374.47
612.00	343.67
613.00	281.60
614.00	276.47
615.00	280.61
616.00	284.29
617.00	370.77
618.00	302.30
619.00	281.05
620.00	271.19
621.00	293.99
622.00	280.39
623.00	254.59
624.00	294.07
625.00	306.45
626.00	280.78
627.00	273.65
628.00	280.57
629.00	278.31
630.00	289.57
631.00	291.91
632.00	263.86
633.00	250.22
634.00	248.66
635.00	243.06
636.00	253.37
637.00	255.50
638.00	257.62
639.00	257.57
640.00	270.68
641.00	287.51
642.00	321.77
643.00	276.57
644.00	263.50
645.00	261.82
646.00	265.95
647.00	261.20
648.00	263.79
649.00	259.47
650.00	242.87
651.00	244.33
652.00	247.71
653.00	250.77
654.00	259.52
655.00	252.60
656.00	513.32
657.00	463.90
658.00	329.97
659.00	255.72
660.00	246.84
661.00	247.00
662.00	231.11
663.00	225.99
664.00	314.42
665.00	309.87
666.00	257.41
667.00	247.86
668.00	270.61
669.00	279.25
670.00	255.21
671.00	233.62
672.00	238.42
673.00	234.98
674.00	234.20
675.00	314.20
676.00	322.63
677.00	252.59
678.00	233.42
679.00	230.93
680.00	226.49
681.00	227.06
682.00	230.93
683.00	225.24
684.00	232.31
685.00	234.29
686.00	234.30
687.00	277.49
688.00	273.79
689.00	259.32
690.00	235.73
691.00	232.13
692.00	229.87
693.00	232.25
694.00	271.66
695.00	262.97
696.00	323.02
697.00	619.79
698.00	338.52
699.00	263.80
700.00	241.66
701.00	239.33
702.00	233.98
703.00	301.04
704.00	290.77
705.00	252.91
706.00	237.88
707.00	472.26
708.00	319.76
709.00	251.08
710.00	220.63
711.00	233.31
712.00	229.26
713.00	226.86
714.00	225.51
715.00	263.74
716.00	243.03
717.00	229.19
718.00	220.99
719.00	221.71
720.00	219.02
721.00	232.24
722.00	232.27
723.00	225.20
724.00	230.46
725.00	250.89
726.00	227.04
727.00	258.31
728.00	285.25
729.00	244.22
730.00	226.86
731.00	222.55
732.00	233.80
733.00	220.47
734.00	222.44
735.00	229.70
736.00	257.10
737.00	278.52
738.00	385.33
739.00	560.75
740.00	331.39
741.00	257.58
742.00	231.98
743.00	229.18
744.00	242.08
745.00	236.84
746.00	217.74
747.00	221.37
748.00	222.04
749.00	230.32
750.00	354.58
751.00	1196.12
752.00	896.67
753.00	457.16
754.00	277.16
755.00	227.38
756.00	217.13
757.00	217.33
758.00	220.30
759.00	224.08
760.00	223.65
761.00	221.94
762.00	219.84
763.00	292.97
764.00	1954.99
765.00	951.80
766.00	468.17
767.00	257.44
768.00	222.57
769.00	219.03
770.00	210.23
771.00	215.59
772.00	244.69
773.00	580.22
774.00	351.66
775.00	271.87
776.00	217.87
777.00	243.70
778.00	468.03
779.00	312.18
780.00	249.45
781.00	218.10
782.00	211.59
783.00	211.90
784.00	214.50
785.00	215.91
786.00	221.49
787.00	218.89
788.00	218.93
789.00	226.96
790.00	239.30
791.00	225.45
792.00	220.66
793.00	216.58
794.00	222.08
795.00	467.43
796.00	492.78
797.00	307.10
798.00	247.84
799.00	219.60
800.00	217.29
801.00	446.24
802.00	761.63
803.00	465.95
804.00	298.77
805.00	240.51
806.00	226.31
807.00	216.99
808.00	222.91
809.00	226.40
810.00	243.66
811.00	706.36
812.00	3652.69
813.00	2216.60
814.00	843.15
815.00	440.25
816.00	238.92
817.00	217.40
818.00	209.42
819.00	214.78
820.00	211.25
821.00	220.30
822.00	214.71
823.00	209.26
824.00	204.61
825.00	213.84
826.00	214.05
827.00	375.55
828.00	296.77
829.00	239.97
830.00	222.37
831.00	211.97
832.00	208.79
833.00	213.55
834.00	209.27
835.00	213.93
836.00	208.26
837.00	208.26
838.00	208.00
839.00	210.89
840.00	218.11
841.00	331.12
842.00	408.18
843.00	761.07
844.00	481.68
845.00	330.08
846.00	273.59
847.00	219.14
848.00	213.69
849.00	208.75
850.00	208.10
851.00	204.63
852.00	224.54
853.00	325.50
854.00	250.27
855.00	225.95
856.00	218.77
857.00	209.61
858.00	209.19
859.00	203.92
860.00	206.60
861.00	222.23
862.00	209.47
863.00	212.76
864.00	210.81
865.00	206.98
866.00	205.32
867.00	214.98
868.00	229.06
869.00	212.20
870.00	207.01
871.00	206.93
872.00	207.85
873.00	211.08
874.00	209.53
875.00	202.26
876.00	204.75
877.00	207.80
878.00	205.75
879.00	209.08
880.00	203.04
881.00	202.91
882.00	205.30
883.00	202.68
884.00	206.00
885.00	204.85
886.00	207.10
887.00	206.88
888.00	206.83
889.00	206.41
890.00	206.08
891.00	208.80
892.00	208.01
893.00	205.11
894.00	203.78
895.00	211.90
896.00	204.75
897.00	207.11
898.00	207.06
899.00	206.04
900.00	208.40
901.00	204.20
902.00	206.42
903.00	207.83
904.00	205.75
905.00	203.97
906.00	209.33
907.00	209.04
908.00	205.90
909.00	205.87
910.00	207.86
911.00	209.87
912.00	239.97
913.00	443.95
914.00	349.01
915.00	287.32
916.00	252.44
917.00	224.37
918.00	204.07
919.00	208.31
920.00	203.15
921.00	209.12
922.00	206.35
923.00	239.57
924.00	229.61
925.00	223.63
926.00	213.97
927.00	209.47
928.00	204.11
929.00	207.08
930.00	207.64
931.00	205.26
932.00	202.20
933.00	205.08
934.00	205.11
935.00	201.41
936.00	203.12
937.00	204.93
938.00	204.26
939.00	201.82
940.00	201.02
941.00	204.90
942.00	206.90
943.00	206.15
944.00	212.67
945.00	208.71
946.00	206.53
947.00	203.85
948.00	204.21
949.00	203.89
950.00	203.20
951.00	202.44
952.00	206.12
953.00	206.11
954.00	201.87
955.00	202.20
956.00	205.09
957.00	201.89
958.00	206.77
959.00	206.95
960.00	205.85
961.00	197.97
962.00	207.31
963.00	204.93
964.00	205.67
965.00	201.73
966.00	208.18
967.00	215.82
968.00	216.97
969.00	208.60
970.00	208.61
971.00	205.76
972.00	206.02
973.00	205.90
974.00	205.51
975.00	202.43
976.00	204.47
977.00	199.46
978.00	204.32
979.00	205.37
980.00	203.17
981.00	205.71
982.00	204.59
983.00	208.27
984.00	201.78
985.00	205.29
986.00	205.22
987.00	203.80
988.00	206.95
989.00	207.05
990.00	203.61
991.00	202.98
992.00	206.05
993.00	205.06
994.00	200.50
995.00	201.92
996.00	205.90
997.00	201.46
998.00	200.00
999.00	205.83
1000.00	199.32
>>>>>End Processed Spectral Data<<<<<
