SpectraSuite Data File
++++++++++++++++++++++++++++++++++++
Date: Tue Oct 18 14:43:25 CDT 2011
User: Helimak
Dark Spectrum Present: No
Reference Spectrum Present: No
Number of Sampled Component Spectra: 1
Spectrometers: USB2G37154
Integration Time (usec): 200000 (USB2G37154)
Spectra Averaged: 1 (USB2G37154)
Boxcar Smoothing: 0 (USB2G37154)
Correct for Electrical Dark: No (USB2G37154)
Strobe/Lamp Enabled: No (USB2G37154)
Correct for Detector Non-linearity: No (USB2G37154)
Correct for Stray Light: No (USB2G37154)
Number of Pixels in Processed Spectrum: 651
>>>>>Begin Processed Spectral Data<<<<<
350.00	201.74
351.00	201.37
352.00	202.85
353.00	201.70
354.00	207.47
355.00	208.72
356.00	209.71
357.00	208.25
358.00	218.72
359.00	211.12
360.00	209.41
361.00	206.26
362.00	213.06
363.00	206.18
364.00	214.00
365.00	208.49
366.00	212.57
367.00	212.98
368.00	211.32
369.00	211.06
370.00	213.02
371.00	220.04
372.00	218.84
373.00	215.76
374.00	217.90
375.00	225.47
376.00	221.34
377.00	227.91
378.00	238.19
379.00	234.31
380.00	235.29
381.00	238.56
382.00	234.85
383.00	239.68
384.00	253.72
385.00	261.97
386.00	261.08
387.00	254.08
388.00	246.45
389.00	234.41
390.00	242.98
391.00	243.85
392.00	253.57
393.00	260.96
394.00	273.71
395.00	261.41
396.00	253.04
397.00	252.89
398.00	244.69
399.00	258.14
400.00	299.63
401.00	332.17
402.00	326.28
403.00	333.83
404.00	348.51
405.00	309.01
406.00	346.09
407.00	366.96
408.00	309.50
409.00	309.64
410.00	314.74
411.00	275.00
412.00	293.62
413.00	290.18
414.00	272.32
415.00	365.97
416.00	328.32
417.00	297.84
418.00	353.16
419.00	531.02
420.00	416.68
421.00	309.20
422.00	388.48
423.00	343.21
424.00	308.30
425.00	462.92
426.00	608.52
427.00	613.52
428.00	427.16
429.00	395.44
430.00	369.10
431.00	325.79
432.00	422.12
433.00	551.82
434.00	1568.02
435.00	900.61
436.00	535.72
437.00	465.51
438.00	380.90
439.00	517.29
440.00	458.44
441.00	439.20
442.00	954.60
443.00	575.01
444.00	353.10
445.00	283.01
446.00	278.90
447.00	334.57
448.00	327.02
449.00	300.26
450.00	320.09
451.00	320.33
452.00	311.75
453.00	350.71
454.00	504.99
455.00	401.69
456.00	366.10
457.00	468.93
458.00	674.80
459.00	535.01
460.00	919.97
461.00	638.64
462.00	396.97
463.00	327.84
464.00	311.07
465.00	443.47
466.00	355.95
467.00	309.12
468.00	302.68
469.00	304.90
470.00	313.67
471.00	319.08
472.00	496.65
473.00	554.71
474.00	375.26
475.00	336.93
476.00	528.33
477.00	357.21
478.00	301.52
479.00	336.46
480.00	1108.51
481.00	559.13
482.00	359.02
483.00	302.43
484.00	471.53
485.00	495.87
486.00	517.46
487.00	1425.20
488.00	1154.27
489.00	574.29
490.00	392.96
491.00	355.04
492.00	350.12
493.00	393.97
494.00	331.48
495.00	330.57
496.00	499.07
497.00	383.04
498.00	333.09
499.00	313.47
500.00	452.03
501.00	547.45
502.00	390.10
503.00	326.90
504.00	368.58
505.00	424.22
506.00	469.47
507.00	415.75
508.00	402.58
509.00	364.58
510.00	334.72
511.00	320.02
512.00	319.40
513.00	347.49
514.00	500.00
515.00	377.49
516.00	353.45
517.00	321.40
518.00	363.51
519.00	337.73
520.00	306.98
521.00	308.21
522.00	318.92
523.00	298.04
524.00	308.66
525.00	319.25
526.00	318.68
527.00	301.60
528.00	298.45
529.00	288.45
530.00	293.30
531.00	301.99
532.00	316.27
533.00	326.93
534.00	331.16
535.00	338.29
536.00	332.15
537.00	332.35
538.00	325.22
539.00	327.21
540.00	316.23
541.00	320.89
542.00	326.24
543.00	317.70
544.00	329.04
545.00	347.83
546.00	344.64
547.00	361.76
548.00	339.55
549.00	406.05
550.00	384.89
551.00	352.90
552.00	330.07
553.00	326.31
554.00	313.76
555.00	353.82
556.00	374.31
557.00	339.94
558.00	301.97
559.00	307.18
560.00	340.39
561.00	313.21
562.00	293.67
563.00	286.10
564.00	293.02
565.00	333.30
566.00	312.91
567.00	314.99
568.00	325.08
569.00	325.37
570.00	313.34
571.00	303.33
572.00	288.17
573.00	299.66
574.00	308.36
575.00	288.27
576.00	280.98
577.00	298.77
578.00	283.78
579.00	284.16
580.00	283.17
581.00	265.22
582.00	268.59
583.00	285.92
584.00	280.19
585.00	273.83
586.00	277.19
587.00	283.02
588.00	313.20
589.00	348.01
590.00	298.70
591.00	305.65
592.00	284.72
593.00	293.48
594.00	283.01
595.00	266.01
596.00	262.34
597.00	268.88
598.00	272.72
599.00	290.55
600.00	298.03
601.00	300.21
602.00	311.07
603.00	504.21
604.00	436.17
605.00	360.84
606.00	327.92
607.00	274.34
608.00	260.18
609.00	261.91
610.00	297.55
611.00	358.38
612.00	340.89
613.00	282.76
614.00	277.67
615.00	281.23
616.00	280.41
617.00	371.83
618.00	299.61
619.00	273.94
620.00	270.09
621.00	293.20
622.00	276.17
623.00	252.35
624.00	295.53
625.00	298.40
626.00	285.10
627.00	268.42
628.00	274.17
629.00	285.71
630.00	288.82
631.00	291.22
632.00	261.47
633.00	253.22
634.00	238.76
635.00	244.05
636.00	249.86
637.00	255.31
638.00	254.23
639.00	254.49
640.00	269.42
641.00	286.08
642.00	321.02
643.00	277.84
644.00	262.43
645.00	259.31
646.00	262.97
647.00	264.29
648.00	259.43
649.00	252.82
650.00	245.72
651.00	243.36
652.00	242.86
653.00	249.21
654.00	256.52
655.00	257.82
656.00	514.69
657.00	462.80
658.00	330.97
659.00	251.47
660.00	246.40
661.00	237.51
662.00	233.09
663.00	232.42
664.00	310.52
665.00	309.08
666.00	256.44
667.00	249.55
668.00	268.90
669.00	278.93
670.00	242.12
671.00	235.05
672.00	237.10
673.00	236.02
674.00	236.10
675.00	308.96
676.00	324.49
677.00	254.07
678.00	233.00
679.00	231.79
680.00	227.71
681.00	231.60
682.00	231.84
683.00	231.12
684.00	231.06
685.00	228.24
686.00	228.54
687.00	279.87
688.00	271.18
689.00	265.27
690.00	236.53
691.00	228.43
692.00	231.75
693.00	232.13
694.00	272.97
695.00	261.97
696.00	318.02
697.00	601.35
698.00	339.88
699.00	266.21
700.00	241.65
701.00	237.06
702.00	232.51
703.00	299.24
704.00	284.19
705.00	245.96
706.00	236.95
707.00	468.58
708.00	325.19
709.00	255.98
710.00	224.70
711.00	237.62
712.00	230.23
713.00	223.87
714.00	226.40
715.00	257.06
716.00	240.44
717.00	228.05
718.00	218.07
719.00	223.13
720.00	220.27
721.00	229.41
722.00	225.44
723.00	232.67
724.00	232.20
725.00	245.11
726.00	228.40
727.00	258.62
728.00	287.13
729.00	250.82
730.00	227.89
731.00	226.04
732.00	227.06
733.00	219.86
734.00	218.96
735.00	231.51
736.00	258.55
737.00	281.57
738.00	378.63
739.00	570.97
740.00	333.91
741.00	252.39
742.00	231.02
743.00	230.12
744.00	239.88
745.00	232.71
746.00	215.63
747.00	218.30
748.00	226.02
749.00	228.76
750.00	351.79
751.00	1188.18
752.00	883.38
753.00	452.92
754.00	278.33
755.00	223.88
756.00	217.92
757.00	218.16
758.00	216.79
759.00	225.20
760.00	225.59
761.00	221.50
762.00	225.23
763.00	293.52
764.00	1955.05
765.00	926.69
766.00	456.55
767.00	259.58
768.00	220.33
769.00	212.99
770.00	210.46
771.00	212.03
772.00	243.57
773.00	579.41
774.00	351.61
775.00	262.05
776.00	221.46
777.00	250.91
778.00	468.02
779.00	310.21
780.00	242.35
781.00	215.65
782.00	211.69
783.00	209.63
784.00	211.96
785.00	215.71
786.00	217.38
787.00	219.27
788.00	221.06
789.00	223.99
790.00	234.79
791.00	226.74
792.00	222.32
793.00	223.94
794.00	223.06
795.00	465.16
796.00	483.16
797.00	304.23
798.00	254.09
799.00	221.84
800.00	219.52
801.00	437.58
802.00	762.99
803.00	462.63
804.00	302.50
805.00	236.80
806.00	219.84
807.00	215.90
808.00	223.03
809.00	226.55
810.00	244.85
811.00	705.31
812.00	3633.86
813.00	2195.89
814.00	843.17
815.00	440.89
816.00	235.67
817.00	223.57
818.00	214.45
819.00	210.18
820.00	212.96
821.00	207.03
822.00	211.18
823.00	211.45
824.00	207.88
825.00	220.77
826.00	211.80
827.00	375.83
828.00	290.60
829.00	242.75
830.00	226.70
831.00	210.44
832.00	210.08
833.00	210.10
834.00	208.85
835.00	215.65
836.00	207.83
837.00	206.28
838.00	212.51
839.00	209.86
840.00	218.70
841.00	336.50
842.00	409.26
843.00	738.85
844.00	480.56
845.00	325.39
846.00	267.50
847.00	219.75
848.00	211.85
849.00	205.29
850.00	206.14
851.00	209.32
852.00	227.35
853.00	336.35
854.00	247.69
855.00	225.49
856.00	225.26
857.00	205.44
858.00	214.65
859.00	206.16
860.00	205.44
861.00	213.70
862.00	210.45
863.00	210.04
864.00	209.85
865.00	210.42
866.00	207.52
867.00	222.42
868.00	225.03
869.00	216.26
870.00	210.00
871.00	208.05
872.00	208.87
873.00	210.11
874.00	203.89
875.00	205.29
876.00	208.10
877.00	208.34
878.00	208.05
879.00	202.11
880.00	208.02
881.00	203.17
882.00	205.42
883.00	202.45
884.00	204.00
885.00	203.65
886.00	205.75
887.00	206.32
888.00	208.15
889.00	202.72
890.00	206.92
891.00	206.24
892.00	205.95
893.00	204.56
894.00	203.64
895.00	209.94
896.00	204.56
897.00	206.64
898.00	200.72
899.00	205.37
900.00	208.99
901.00	209.61
902.00	203.17
903.00	211.39
904.00	206.74
905.00	205.30
906.00	215.06
907.00	207.99
908.00	207.16
909.00	203.96
910.00	207.14
911.00	209.81
912.00	235.14
913.00	448.35
914.00	345.63
915.00	285.62
916.00	249.13
917.00	219.33
918.00	204.94
919.00	207.56
920.00	210.29
921.00	209.05
922.00	207.60
923.00	238.10
924.00	234.11
925.00	220.68
926.00	215.99
927.00	212.53
928.00	204.59
929.00	208.79
930.00	203.29
931.00	204.35
932.00	204.83
933.00	206.24
934.00	203.11
935.00	206.53
936.00	204.77
937.00	192.50
938.00	202.86
939.00	208.71
940.00	205.50
941.00	204.92
942.00	210.95
943.00	209.81
944.00	206.68
945.00	205.22
946.00	201.19
947.00	212.99
948.00	202.01
949.00	205.64
950.00	201.88
951.00	204.50
952.00	203.09
953.00	201.92
954.00	202.06
955.00	205.79
956.00	204.70
957.00	204.11
958.00	205.63
959.00	202.96
960.00	205.90
961.00	203.56
962.00	209.30
963.00	204.99
964.00	205.97
965.00	203.33
966.00	208.37
967.00	215.24
968.00	213.00
969.00	209.74
970.00	208.53
971.00	206.53
972.00	206.42
973.00	203.34
974.00	207.05
975.00	201.91
976.00	205.87
977.00	200.98
978.00	204.83
979.00	203.14
980.00	201.83
981.00	204.42
982.00	205.67
983.00	204.52
984.00	201.43
985.00	207.66
986.00	202.92
987.00	203.98
988.00	202.07
989.00	207.36
990.00	204.07
991.00	205.11
992.00	204.63
993.00	204.84
994.00	200.81
995.00	199.46
996.00	203.14
997.00	203.16
998.00	206.93
999.00	204.80
1000.00	208.21
>>>>>End Processed Spectral Data<<<<<
