SpectraSuite Data File
++++++++++++++++++++++++++++++++++++
Date: Tue Oct 18 14:35:50 CDT 2011
User: Helimak
Dark Spectrum Present: No
Reference Spectrum Present: No
Number of Sampled Component Spectra: 1
Spectrometers: USB2G37154
Integration Time (usec): 200000 (USB2G37154)
Spectra Averaged: 1 (USB2G37154)
Boxcar Smoothing: 0 (USB2G37154)
Correct for Electrical Dark: No (USB2G37154)
Strobe/Lamp Enabled: No (USB2G37154)
Correct for Detector Non-linearity: No (USB2G37154)
Correct for Stray Light: No (USB2G37154)
Number of Pixels in Processed Spectrum: 651
>>>>>Begin Processed Spectral Data<<<<<
350.00	205.13
351.00	205.74
352.00	200.59
353.00	203.27
354.00	201.22
355.00	205.27
356.00	208.35
357.00	205.08
358.00	209.55
359.00	208.02
360.00	205.53
361.00	204.71
362.00	207.65
363.00	205.90
364.00	208.68
365.00	204.24
366.00	201.85
367.00	202.99
368.00	211.56
369.00	209.25
370.00	211.98
371.00	210.27
372.00	215.97
373.00	217.14
374.00	212.04
375.00	216.81
376.00	218.05
377.00	220.94
378.00	224.68
379.00	224.24
380.00	229.15
381.00	225.57
382.00	226.68
383.00	231.82
384.00	238.20
385.00	237.99
386.00	237.97
387.00	239.28
388.00	235.06
389.00	230.01
390.00	226.48
391.00	237.05
392.00	237.84
393.00	242.92
394.00	250.50
395.00	233.48
396.00	238.97
397.00	231.37
398.00	230.62
399.00	247.39
400.00	261.90
401.00	282.71
402.00	275.69
403.00	299.69
404.00	301.60
405.00	273.85
406.00	300.07
407.00	318.02
408.00	270.24
409.00	275.32
410.00	281.67
411.00	247.67
412.00	264.51
413.00	254.32
414.00	244.38
415.00	332.15
416.00	303.74
417.00	270.78
418.00	310.30
419.00	462.53
420.00	369.77
421.00	284.23
422.00	329.24
423.00	298.14
424.00	272.48
425.00	405.06
426.00	492.23
427.00	493.55
428.00	355.35
429.00	339.94
430.00	316.57
431.00	282.63
432.00	353.19
433.00	447.66
434.00	1095.50
435.00	641.24
436.00	423.57
437.00	388.87
438.00	317.83
439.00	414.82
440.00	364.88
441.00	364.04
442.00	701.83
443.00	448.03
444.00	303.33
445.00	256.90
446.00	254.70
447.00	299.69
448.00	287.73
449.00	268.15
450.00	293.42
451.00	289.39
452.00	282.40
453.00	308.01
454.00	414.19
455.00	336.31
456.00	311.98
457.00	384.38
458.00	538.93
459.00	430.85
460.00	697.50
461.00	498.82
462.00	334.25
463.00	288.46
464.00	271.07
465.00	376.34
466.00	315.76
467.00	276.94
468.00	269.05
469.00	276.35
470.00	278.58
471.00	284.10
472.00	403.93
473.00	436.38
474.00	314.26
475.00	304.25
476.00	440.83
477.00	308.92
478.00	267.25
479.00	290.23
480.00	799.85
481.00	427.40
482.00	303.84
483.00	281.67
484.00	379.29
485.00	401.16
486.00	407.85
487.00	1049.49
488.00	828.47
489.00	448.64
490.00	332.58
491.00	303.53
492.00	304.02
493.00	335.14
494.00	293.02
495.00	284.95
496.00	415.45
497.00	323.93
498.00	290.13
499.00	281.12
500.00	370.19
501.00	434.58
502.00	326.05
503.00	289.43
504.00	310.77
505.00	349.96
506.00	381.65
507.00	347.72
508.00	333.41
509.00	314.21
510.00	292.50
511.00	283.05
512.00	284.65
513.00	298.82
514.00	406.30
515.00	324.90
516.00	310.83
517.00	286.31
518.00	317.26
519.00	302.68
520.00	273.60
521.00	275.44
522.00	286.93
523.00	267.71
524.00	273.91
525.00	291.08
526.00	280.63
527.00	268.03
528.00	273.66
529.00	267.57
530.00	268.10
531.00	266.79
532.00	280.35
533.00	282.69
534.00	286.40
535.00	300.27
536.00	292.77
537.00	294.63
538.00	286.76
539.00	286.90
540.00	280.91
541.00	285.62
542.00	296.11
543.00	275.72
544.00	288.45
545.00	308.44
546.00	305.65
547.00	303.27
548.00	292.89
549.00	358.41
550.00	333.11
551.00	307.92
552.00	298.46
553.00	288.19
554.00	274.73
555.00	309.85
556.00	329.71
557.00	311.24
558.00	266.49
559.00	270.13
560.00	306.53
561.00	283.45
562.00	264.60
563.00	257.93
564.00	270.20
565.00	298.57
566.00	281.03
567.00	278.78
568.00	286.04
569.00	283.89
570.00	277.22
571.00	281.45
572.00	257.79
573.00	259.40
574.00	278.40
575.00	252.38
576.00	247.57
577.00	267.81
578.00	263.25
579.00	258.79
580.00	265.81
581.00	244.43
582.00	244.36
583.00	259.31
584.00	252.60
585.00	247.98
586.00	259.31
587.00	252.91
588.00	283.73
589.00	311.28
590.00	270.26
591.00	269.65
592.00	261.60
593.00	272.49
594.00	256.02
595.00	248.92
596.00	243.30
597.00	249.24
598.00	258.26
599.00	261.56
600.00	266.84
601.00	269.95
602.00	281.41
603.00	456.83
604.00	395.04
605.00	318.74
606.00	293.09
607.00	252.63
608.00	238.12
609.00	242.97
610.00	265.22
611.00	325.93
612.00	305.07
613.00	259.90
614.00	256.39
615.00	258.42
616.00	256.07
617.00	330.90
618.00	274.21
619.00	266.28
620.00	245.96
621.00	265.84
622.00	257.98
623.00	242.26
624.00	262.74
625.00	273.58
626.00	251.12
627.00	248.31
628.00	253.74
629.00	259.21
630.00	268.67
631.00	271.21
632.00	246.01
633.00	237.66
634.00	233.57
635.00	235.07
636.00	235.60
637.00	244.17
638.00	238.45
639.00	237.27
640.00	248.91
641.00	255.86
642.00	296.54
643.00	255.51
644.00	241.40
645.00	237.67
646.00	248.98
647.00	237.86
648.00	242.14
649.00	237.77
650.00	233.22
651.00	226.76
652.00	230.28
653.00	227.65
654.00	242.80
655.00	241.96
656.00	406.92
657.00	370.88
658.00	282.98
659.00	236.69
660.00	234.00
661.00	233.08
662.00	220.94
663.00	224.41
664.00	275.93
665.00	274.62
666.00	241.81
667.00	230.28
668.00	250.77
669.00	250.93
670.00	231.43
671.00	235.13
672.00	225.13
673.00	232.01
674.00	228.90
675.00	286.28
676.00	302.65
677.00	243.00
678.00	229.67
679.00	230.98
680.00	216.66
681.00	221.41
682.00	222.07
683.00	217.68
684.00	224.91
685.00	226.26
686.00	222.34
687.00	264.44
688.00	260.97
689.00	254.45
690.00	228.51
691.00	219.86
692.00	223.04
693.00	224.15
694.00	256.55
695.00	240.83
696.00	294.02
697.00	518.09
698.00	308.26
699.00	248.02
700.00	230.98
701.00	219.58
702.00	226.19
703.00	276.86
704.00	258.74
705.00	231.71
706.00	226.62
707.00	411.70
708.00	297.21
709.00	242.29
710.00	219.58
711.00	224.00
712.00	219.65
713.00	215.24
714.00	216.28
715.00	246.08
716.00	235.93
717.00	223.67
718.00	218.04
719.00	212.74
720.00	213.61
721.00	222.15
722.00	220.30
723.00	224.12
724.00	222.59
725.00	234.22
726.00	220.15
727.00	242.93
728.00	270.49
729.00	234.25
730.00	219.89
731.00	222.74
732.00	221.22
733.00	216.55
734.00	213.82
735.00	223.18
736.00	249.29
737.00	263.35
738.00	343.30
739.00	492.36
740.00	304.28
741.00	238.40
742.00	222.01
743.00	224.06
744.00	232.19
745.00	233.27
746.00	211.58
747.00	212.94
748.00	214.68
749.00	223.85
750.00	308.85
751.00	976.32
752.00	751.56
753.00	402.73
754.00	260.29
755.00	218.76
756.00	213.15
757.00	210.15
758.00	218.16
759.00	218.83
760.00	219.36
761.00	215.60
762.00	220.85
763.00	263.72
764.00	1579.14
765.00	763.66
766.00	404.42
767.00	239.58
768.00	211.13
769.00	209.72
770.00	211.25
771.00	210.96
772.00	231.94
773.00	496.61
774.00	321.02
775.00	249.70
776.00	212.51
777.00	228.17
778.00	349.01
779.00	266.99
780.00	221.88
781.00	212.06
782.00	210.75
783.00	207.43
784.00	208.19
785.00	212.09
786.00	215.64
787.00	216.77
788.00	215.23
789.00	218.96
790.00	229.27
791.00	216.15
792.00	214.52
793.00	213.73
794.00	217.08
795.00	399.89
796.00	430.98
797.00	279.45
798.00	236.59
799.00	216.98
800.00	215.15
801.00	388.77
802.00	630.89
803.00	407.28
804.00	280.05
805.00	233.04
806.00	218.31
807.00	215.87
808.00	216.99
809.00	219.86
810.00	232.12
811.00	591.60
812.00	2931.36
813.00	1779.34
814.00	717.90
815.00	393.48
816.00	225.00
817.00	220.27
818.00	210.45
819.00	214.56
820.00	210.79
821.00	201.97
822.00	213.92
823.00	209.18
824.00	209.49
825.00	213.66
826.00	211.12
827.00	338.46
828.00	276.85
829.00	229.19
830.00	213.13
831.00	210.76
832.00	209.20
833.00	204.90
834.00	211.04
835.00	211.45
836.00	211.38
837.00	208.24
838.00	204.18
839.00	208.89
840.00	209.31
841.00	301.14
842.00	358.34
843.00	620.34
844.00	421.31
845.00	296.45
846.00	253.19
847.00	215.34
848.00	208.41
849.00	207.11
850.00	207.13
851.00	203.05
852.00	216.85
853.00	309.48
854.00	235.39
855.00	220.17
856.00	215.73
857.00	206.38
858.00	204.34
859.00	203.88
860.00	206.45
861.00	212.11
862.00	207.76
863.00	208.03
864.00	217.89
865.00	208.74
866.00	210.14
867.00	213.32
868.00	219.03
869.00	208.22
870.00	207.41
871.00	210.94
872.00	206.89
873.00	206.80
874.00	202.66
875.00	206.81
876.00	207.19
877.00	203.30
878.00	204.96
879.00	204.99
880.00	201.79
881.00	203.65
882.00	206.35
883.00	198.61
884.00	208.00
885.00	209.27
886.00	201.88
887.00	204.29
888.00	206.97
889.00	207.75
890.00	206.87
891.00	207.68
892.00	205.15
893.00	206.04
894.00	205.52
895.00	206.77
896.00	203.62
897.00	206.47
898.00	203.34
899.00	203.84
900.00	205.82
901.00	204.85
902.00	204.38
903.00	210.60
904.00	202.68
905.00	201.97
906.00	207.42
907.00	205.08
908.00	203.50
909.00	206.17
910.00	207.86
911.00	200.22
912.00	231.42
913.00	383.86
914.00	310.25
915.00	262.33
916.00	247.58
917.00	219.14
918.00	210.55
919.00	205.47
920.00	210.74
921.00	208.98
922.00	205.83
923.00	228.65
924.00	222.55
925.00	218.21
926.00	212.00
927.00	210.11
928.00	200.64
929.00	206.14
930.00	208.52
931.00	201.46
932.00	201.69
933.00	207.13
934.00	201.85
935.00	200.82
936.00	204.73
937.00	205.86
938.00	206.34
939.00	207.54
940.00	205.70
941.00	199.51
942.00	210.02
943.00	204.94
944.00	205.13
945.00	210.01
946.00	203.83
947.00	210.06
948.00	203.74
949.00	201.63
950.00	203.02
951.00	207.64
952.00	203.96
953.00	202.48
954.00	205.06
955.00	208.01
956.00	208.32
957.00	203.95
958.00	206.39
959.00	205.01
960.00	201.75
961.00	202.21
962.00	204.10
963.00	206.58
964.00	202.40
965.00	203.90
966.00	203.95
967.00	213.72
968.00	211.02
969.00	210.48
970.00	204.95
971.00	210.47
972.00	203.12
973.00	208.48
974.00	204.28
975.00	203.63
976.00	204.76
977.00	204.12
978.00	202.35
979.00	201.31
980.00	206.62
981.00	203.66
982.00	201.78
983.00	206.02
984.00	203.98
985.00	207.96
986.00	204.43
987.00	203.17
988.00	202.66
989.00	204.42
990.00	202.85
991.00	205.46
992.00	203.00
993.00	201.24
994.00	201.69
995.00	206.09
996.00	200.97
997.00	206.68
998.00	208.42
999.00	205.83
1000.00	201.67
>>>>>End Processed Spectral Data<<<<<
