SpectraSuite Data File
++++++++++++++++++++++++++++++++++++
Date: Tue Oct 18 14:54:18 CDT 2011
User: Helimak
Dark Spectrum Present: No
Reference Spectrum Present: No
Number of Sampled Component Spectra: 1
Spectrometers: USB2G37154
Integration Time (usec): 200000 (USB2G37154)
Spectra Averaged: 1 (USB2G37154)
Boxcar Smoothing: 0 (USB2G37154)
Correct for Electrical Dark: No (USB2G37154)
Strobe/Lamp Enabled: No (USB2G37154)
Correct for Detector Non-linearity: No (USB2G37154)
Correct for Stray Light: No (USB2G37154)
Number of Pixels in Processed Spectrum: 651
>>>>>Begin Processed Spectral Data<<<<<
350.00	204.50
351.00	204.37
352.00	202.91
353.00	204.51
354.00	203.79
355.00	201.38
356.00	201.06
357.00	205.32
358.00	205.21
359.00	202.11
360.00	206.73
361.00	202.75
362.00	206.96
363.00	203.28
364.00	208.71
365.00	205.73
366.00	205.04
367.00	204.03
368.00	206.81
369.00	204.32
370.00	206.04
371.00	207.52
372.00	210.50
373.00	206.95
374.00	209.48
375.00	209.86
376.00	206.91
377.00	212.41
378.00	215.85
379.00	208.12
380.00	214.06
381.00	211.23
382.00	212.79
383.00	213.59
384.00	220.47
385.00	214.00
386.00	217.85
387.00	218.01
388.00	217.78
389.00	216.78
390.00	213.94
391.00	215.90
392.00	216.83
393.00	221.83
394.00	220.39
395.00	220.69
396.00	222.96
397.00	215.96
398.00	215.38
399.00	221.71
400.00	228.26
401.00	240.14
402.00	235.70
403.00	237.72
404.00	244.32
405.00	235.40
406.00	232.00
407.00	238.56
408.00	232.43
409.00	236.50
410.00	231.40
411.00	225.12
412.00	226.26
413.00	232.10
414.00	224.20
415.00	253.57
416.00	241.91
417.00	231.99
418.00	249.11
419.00	304.29
420.00	261.66
421.00	232.73
422.00	242.41
423.00	234.35
424.00	238.04
425.00	282.29
426.00	302.38
427.00	300.32
428.00	263.87
429.00	257.06
430.00	255.26
431.00	240.73
432.00	261.61
433.00	295.00
434.00	430.50
435.00	330.28
436.00	269.95
437.00	266.60
438.00	248.42
439.00	268.29
440.00	257.03
441.00	252.58
442.00	321.89
443.00	274.03
444.00	237.60
445.00	226.95
446.00	233.64
447.00	237.40
448.00	236.68
449.00	239.01
450.00	244.73
451.00	244.30
452.00	245.72
453.00	251.42
454.00	283.05
455.00	264.77
456.00	269.38
457.00	280.25
458.00	305.25
459.00	285.26
460.00	341.33
461.00	293.32
462.00	254.05
463.00	241.75
464.00	240.55
465.00	271.65
466.00	257.57
467.00	240.71
468.00	243.53
469.00	245.73
470.00	244.52
471.00	240.36
472.00	268.70
473.00	274.91
474.00	252.58
475.00	248.07
476.00	279.58
477.00	255.91
478.00	237.14
479.00	239.46
480.00	347.67
481.00	285.96
482.00	250.38
483.00	246.17
484.00	265.83
485.00	293.75
486.00	298.21
487.00	423.66
488.00	377.91
489.00	293.49
490.00	271.93
491.00	262.92
492.00	260.50
493.00	263.92
494.00	249.51
495.00	256.15
496.00	278.93
497.00	262.70
498.00	251.35
499.00	257.41
500.00	269.59
501.00	285.40
502.00	258.01
503.00	253.09
504.00	268.88
505.00	277.00
506.00	283.03
507.00	284.10
508.00	277.74
509.00	261.27
510.00	255.45
511.00	252.98
512.00	252.32
513.00	256.61
514.00	282.01
515.00	267.89
516.00	256.53
517.00	250.04
518.00	264.55
519.00	257.30
520.00	243.81
521.00	242.24
522.00	247.39
523.00	243.18
524.00	243.41
525.00	256.15
526.00	254.00
527.00	242.03
528.00	243.18
529.00	241.61
530.00	242.04
531.00	246.63
532.00	249.70
533.00	252.63
534.00	257.20
535.00	268.00
536.00	260.25
537.00	253.92
538.00	251.52
539.00	251.23
540.00	251.94
541.00	249.02
542.00	256.94
543.00	248.06
544.00	254.22
545.00	259.80
546.00	257.18
547.00	269.77
548.00	257.10
549.00	278.80
550.00	273.20
551.00	255.99
552.00	252.81
553.00	250.43
554.00	253.95
555.00	261.70
556.00	268.77
557.00	256.09
558.00	238.60
559.00	235.76
560.00	257.86
561.00	250.12
562.00	244.29
563.00	236.13
564.00	236.11
565.00	252.46
566.00	247.09
567.00	246.26
568.00	260.12
569.00	250.97
570.00	249.83
571.00	251.55
572.00	238.85
573.00	241.36
574.00	250.56
575.00	234.88
576.00	236.96
577.00	241.01
578.00	237.67
579.00	236.19
580.00	236.69
581.00	234.35
582.00	227.66
583.00	231.32
584.00	235.75
585.00	233.83
586.00	240.67
587.00	237.96
588.00	252.91
589.00	256.28
590.00	244.94
591.00	246.59
592.00	240.35
593.00	240.82
594.00	238.04
595.00	230.66
596.00	229.72
597.00	233.54
598.00	237.32
599.00	240.06
600.00	240.27
601.00	247.35
602.00	244.95
603.00	303.95
604.00	286.84
605.00	263.45
606.00	251.57
607.00	232.71
608.00	222.99
609.00	225.01
610.00	235.45
611.00	246.82
612.00	241.53
613.00	231.32
614.00	232.49
615.00	233.83
616.00	231.25
617.00	251.00
618.00	240.69
619.00	237.86
620.00	231.81
621.00	242.10
622.00	231.97
623.00	226.83
624.00	237.27
625.00	232.77
626.00	237.79
627.00	232.22
628.00	236.11
629.00	242.78
630.00	238.90
631.00	233.48
632.00	229.61
633.00	225.77
634.00	216.84
635.00	223.05
636.00	221.80
637.00	224.94
638.00	226.00
639.00	230.16
640.00	234.61
641.00	233.57
642.00	247.59
643.00	227.98
644.00	228.84
645.00	224.39
646.00	231.95
647.00	227.98
648.00	229.09
649.00	226.78
650.00	214.24
651.00	215.82
652.00	217.63
653.00	223.33
654.00	224.83
655.00	220.96
656.00	297.09
657.00	285.42
658.00	236.99
659.00	225.04
660.00	217.95
661.00	217.59
662.00	214.82
663.00	212.00
664.00	234.29
665.00	228.08
666.00	219.07
667.00	222.41
668.00	223.61
669.00	226.99
670.00	223.83
671.00	217.49
672.00	217.03
673.00	218.98
674.00	220.04
675.00	235.38
676.00	245.76
677.00	220.55
678.00	212.79
679.00	213.97
680.00	213.58
681.00	218.14
682.00	218.96
683.00	212.46
684.00	221.39
685.00	219.75
686.00	214.49
687.00	230.59
688.00	224.03
689.00	224.12
690.00	214.65
691.00	216.36
692.00	212.63
693.00	214.94
694.00	232.09
695.00	223.81
696.00	246.01
697.00	327.38
698.00	247.69
699.00	225.71
700.00	215.60
701.00	218.22
702.00	214.23
703.00	231.14
704.00	229.60
705.00	224.14
706.00	217.49
707.00	284.80
708.00	243.69
709.00	222.86
710.00	210.90
711.00	215.71
712.00	211.63
713.00	212.30
714.00	211.86
715.00	222.46
716.00	215.86
717.00	212.57
718.00	211.04
719.00	212.01
720.00	213.37
721.00	212.20
722.00	212.70
723.00	214.64
724.00	214.83
725.00	231.07
726.00	209.18
727.00	220.01
728.00	231.69
729.00	217.22
730.00	213.69
731.00	212.99
732.00	210.79
733.00	211.16
734.00	212.94
735.00	213.19
736.00	223.13
737.00	230.38
738.00	259.66
739.00	314.90
740.00	242.83
741.00	216.87
742.00	212.03
743.00	210.00
744.00	220.79
745.00	220.99
746.00	207.46
747.00	212.19
748.00	205.76
749.00	215.48
750.00	251.90
751.00	488.66
752.00	422.31
753.00	282.95
754.00	227.07
755.00	211.98
756.00	210.88
757.00	207.36
758.00	216.12
759.00	208.99
760.00	213.20
761.00	205.78
762.00	209.56
763.00	236.92
764.00	696.43
765.00	429.50
766.00	278.45
767.00	220.94
768.00	208.44
769.00	209.59
770.00	205.34
771.00	207.30
772.00	214.96
773.00	315.30
774.00	247.12
775.00	229.66
776.00	209.43
777.00	213.46
778.00	275.02
779.00	240.13
780.00	212.61
781.00	205.46
782.00	207.01
783.00	207.09
784.00	207.71
785.00	208.82
786.00	213.03
787.00	207.48
788.00	214.37
789.00	216.97
790.00	214.48
791.00	211.28
792.00	210.57
793.00	207.25
794.00	211.89
795.00	282.48
796.00	295.48
797.00	238.07
798.00	224.44
799.00	207.70
800.00	206.95
801.00	277.46
802.00	370.78
803.00	287.01
804.00	228.78
805.00	217.03
806.00	212.14
807.00	209.02
808.00	211.43
809.00	206.13
810.00	215.84
811.00	363.43
812.00	1340.79
813.00	837.04
814.00	417.06
815.00	285.24
816.00	214.46
817.00	209.82
818.00	207.18
819.00	208.09
820.00	205.59
821.00	205.88
822.00	207.55
823.00	205.28
824.00	209.14
825.00	214.62
826.00	206.29
827.00	255.11
828.00	215.10
829.00	216.75
830.00	209.12
831.00	206.56
832.00	201.85
833.00	205.79
834.00	201.02
835.00	207.50
836.00	202.65
837.00	206.70
838.00	201.51
839.00	209.96
840.00	211.15
841.00	246.27
842.00	270.30
843.00	367.75
844.00	286.31
845.00	245.00
846.00	221.63
847.00	208.39
848.00	203.55
849.00	202.10
850.00	206.24
851.00	204.07
852.00	212.57
853.00	245.83
854.00	213.50
855.00	210.26
856.00	217.42
857.00	206.09
858.00	207.13
859.00	202.36
860.00	202.02
861.00	208.74
862.00	205.94
863.00	202.80
864.00	209.82
865.00	205.45
866.00	207.31
867.00	209.85
868.00	209.04
869.00	205.83
870.00	202.53
871.00	205.75
872.00	207.08
873.00	203.85
874.00	204.30
875.00	200.73
876.00	206.09
877.00	202.57
878.00	204.41
879.00	202.90
880.00	203.93
881.00	204.57
882.00	203.49
883.00	206.27
884.00	204.00
885.00	206.19
886.00	200.32
887.00	204.45
888.00	200.07
889.00	204.53
890.00	204.89
891.00	204.98
892.00	206.75
893.00	202.15
894.00	199.52
895.00	207.96
896.00	204.61
897.00	203.18
898.00	202.32
899.00	203.58
900.00	206.61
901.00	207.44
902.00	206.11
903.00	210.23
904.00	204.66
905.00	202.16
906.00	211.93
907.00	207.79
908.00	202.50
909.00	203.20
910.00	204.84
911.00	205.85
912.00	211.40
913.00	282.15
914.00	247.30
915.00	223.96
916.00	219.47
917.00	208.04
918.00	208.95
919.00	205.41
920.00	203.96
921.00	206.63
922.00	207.65
923.00	212.88
924.00	211.92
925.00	209.88
926.00	204.01
927.00	207.80
928.00	202.19
929.00	200.95
930.00	203.31
931.00	204.25
932.00	203.14
933.00	202.74
934.00	202.93
935.00	201.37
936.00	203.80
937.00	203.06
938.00	204.88
939.00	205.13
940.00	198.36
941.00	207.00
942.00	207.97
943.00	201.74
944.00	199.39
945.00	205.86
946.00	202.69
947.00	213.92
948.00	205.23
949.00	202.14
950.00	203.78
951.00	206.03
952.00	200.99
953.00	206.77
954.00	205.16
955.00	202.51
956.00	201.45
957.00	211.78
958.00	202.00
959.00	205.00
960.00	203.27
961.00	202.36
962.00	204.92
963.00	203.43
964.00	201.68
965.00	202.34
966.00	205.14
967.00	211.97
968.00	205.95
969.00	206.74
970.00	203.51
971.00	204.61
972.00	204.70
973.00	206.55
974.00	206.63
975.00	199.61
976.00	202.78
977.00	203.42
978.00	202.20
979.00	204.93
980.00	203.03
981.00	203.47
982.00	206.55
983.00	206.44
984.00	202.94
985.00	208.09
986.00	204.04
987.00	208.65
988.00	208.59
989.00	205.00
990.00	205.14
991.00	203.27
992.00	205.22
993.00	203.80
994.00	203.74
995.00	205.58
996.00	204.07
997.00	203.75
998.00	203.65
999.00	199.53
1000.00	203.35
>>>>>End Processed Spectral Data<<<<<
