SpectraSuite Data File
++++++++++++++++++++++++++++++++++++
Date: Tue Oct 18 14:54:17 CDT 2011
User: Helimak
Dark Spectrum Present: No
Reference Spectrum Present: No
Number of Sampled Component Spectra: 1
Spectrometers: USB2G37154
Integration Time (usec): 200000 (USB2G37154)
Spectra Averaged: 1 (USB2G37154)
Boxcar Smoothing: 0 (USB2G37154)
Correct for Electrical Dark: No (USB2G37154)
Strobe/Lamp Enabled: No (USB2G37154)
Correct for Detector Non-linearity: No (USB2G37154)
Correct for Stray Light: No (USB2G37154)
Number of Pixels in Processed Spectrum: 651
>>>>>Begin Processed Spectral Data<<<<<
350.00	198.44
351.00	207.47
352.00	202.02
353.00	200.50
354.00	197.94
355.00	205.01
356.00	204.95
357.00	200.52
358.00	206.54
359.00	206.33
360.00	203.70
361.00	205.66
362.00	207.05
363.00	207.14
364.00	211.03
365.00	202.97
366.00	201.25
367.00	203.13
368.00	205.71
369.00	206.23
370.00	205.04
371.00	209.97
372.00	207.96
373.00	201.34
374.00	209.44
375.00	213.28
376.00	210.29
377.00	207.74
378.00	208.99
379.00	215.52
380.00	212.20
381.00	215.06
382.00	218.20
383.00	214.73
384.00	217.48
385.00	217.19
386.00	218.00
387.00	225.37
388.00	215.31
389.00	212.30
390.00	212.79
391.00	216.10
392.00	218.63
393.00	220.28
394.00	223.69
395.00	222.68
396.00	218.12
397.00	218.12
398.00	212.64
399.00	218.27
400.00	226.20
401.00	239.13
402.00	239.00
403.00	241.52
404.00	244.25
405.00	233.90
406.00	231.03
407.00	237.13
408.00	229.36
409.00	232.16
410.00	231.73
411.00	224.14
412.00	225.85
413.00	224.03
414.00	220.09
415.00	251.86
416.00	240.01
417.00	234.50
418.00	248.55
419.00	299.18
420.00	266.89
421.00	232.83
422.00	247.71
423.00	239.82
424.00	237.81
425.00	284.31
426.00	308.43
427.00	303.39
428.00	261.43
429.00	256.62
430.00	260.57
431.00	238.88
432.00	264.33
433.00	286.57
434.00	430.54
435.00	323.13
436.00	273.45
437.00	269.53
438.00	247.62
439.00	266.71
440.00	258.21
441.00	255.79
442.00	329.37
443.00	275.82
444.00	238.12
445.00	231.86
446.00	231.05
447.00	240.62
448.00	239.27
449.00	241.93
450.00	245.86
451.00	250.06
452.00	245.45
453.00	251.85
454.00	278.25
455.00	259.50
456.00	262.84
457.00	277.09
458.00	301.63
459.00	284.39
460.00	335.76
461.00	296.81
462.00	257.58
463.00	244.52
464.00	239.59
465.00	264.64
466.00	252.12
467.00	243.62
468.00	239.04
469.00	245.84
470.00	245.95
471.00	240.20
472.00	275.05
473.00	277.77
474.00	249.90
475.00	249.97
476.00	279.28
477.00	253.26
478.00	238.17
479.00	239.24
480.00	353.85
481.00	283.73
482.00	253.20
483.00	250.01
484.00	271.88
485.00	286.39
486.00	293.05
487.00	426.42
488.00	393.42
489.00	291.38
490.00	268.28
491.00	258.76
492.00	263.06
493.00	257.04
494.00	251.97
495.00	251.85
496.00	281.95
497.00	258.29
498.00	251.48
499.00	250.31
500.00	269.57
501.00	288.22
502.00	261.00
503.00	248.04
504.00	266.90
505.00	277.39
506.00	286.09
507.00	284.14
508.00	274.00
509.00	269.69
510.00	256.10
511.00	253.99
512.00	252.03
513.00	252.63
514.00	276.95
515.00	257.28
516.00	253.68
517.00	255.47
518.00	261.65
519.00	261.32
520.00	247.98
521.00	247.64
522.00	252.65
523.00	247.43
524.00	244.63
525.00	254.08
526.00	249.42
527.00	242.21
528.00	245.21
529.00	241.91
530.00	241.92
531.00	242.95
532.00	251.79
533.00	251.43
534.00	253.90
535.00	266.50
536.00	258.61
537.00	258.55
538.00	254.03
539.00	255.14
540.00	249.17
541.00	249.72
542.00	256.63
543.00	252.01
544.00	259.03
545.00	256.54
546.00	264.53
547.00	267.58
548.00	258.48
549.00	274.60
550.00	262.23
551.00	266.01
552.00	255.26
553.00	248.89
554.00	247.56
555.00	262.69
556.00	264.72
557.00	253.78
558.00	237.06
559.00	243.59
560.00	256.06
561.00	242.57
562.00	237.17
563.00	236.67
564.00	242.58
565.00	251.17
566.00	249.43
567.00	246.07
568.00	249.19
569.00	254.27
570.00	245.05
571.00	256.18
572.00	234.96
573.00	241.74
574.00	251.60
575.00	239.28
576.00	237.86
577.00	239.93
578.00	240.19
579.00	234.32
580.00	236.87
581.00	233.12
582.00	231.63
583.00	237.86
584.00	233.45
585.00	231.57
586.00	237.24
587.00	236.93
588.00	256.47
589.00	259.29
590.00	242.85
591.00	248.04
592.00	236.21
593.00	240.65
594.00	232.03
595.00	229.24
596.00	227.19
597.00	232.25
598.00	235.39
599.00	235.69
600.00	239.29
601.00	244.23
602.00	247.04
603.00	305.75
604.00	283.55
605.00	259.26
606.00	249.17
607.00	229.69
608.00	222.20
609.00	222.99
610.00	237.13
611.00	251.67
612.00	246.20
613.00	231.24
614.00	233.30
615.00	231.59
616.00	235.28
617.00	251.95
618.00	235.87
619.00	246.55
620.00	234.75
621.00	241.56
622.00	229.57
623.00	222.14
624.00	231.95
625.00	238.71
626.00	239.02
627.00	230.86
628.00	239.30
629.00	238.71
630.00	236.52
631.00	239.66
632.00	230.68
633.00	225.81
634.00	220.06
635.00	225.02
636.00	224.73
637.00	225.28
638.00	220.85
639.00	228.01
640.00	233.31
641.00	235.75
642.00	246.47
643.00	235.01
644.00	227.08
645.00	224.11
646.00	229.94
647.00	225.02
648.00	227.92
649.00	227.45
650.00	222.09
651.00	222.57
652.00	222.03
653.00	223.05
654.00	225.67
655.00	228.63
656.00	303.62
657.00	286.67
658.00	238.00
659.00	221.26
660.00	221.19
661.00	226.39
662.00	218.31
663.00	213.94
664.00	235.63
665.00	224.36
666.00	218.33
667.00	217.88
668.00	223.84
669.00	224.78
670.00	224.02
671.00	214.60
672.00	219.16
673.00	218.00
674.00	217.09
675.00	237.23
676.00	238.69
677.00	221.24
678.00	211.96
679.00	216.83
680.00	216.31
681.00	214.31
682.00	214.68
683.00	211.99
684.00	220.14
685.00	218.99
686.00	212.05
687.00	225.50
688.00	227.18
689.00	221.19
690.00	214.53
691.00	218.94
692.00	217.66
693.00	216.67
694.00	229.36
695.00	226.02
696.00	249.01
697.00	328.62
698.00	248.60
699.00	226.20
700.00	223.37
701.00	217.93
702.00	215.77
703.00	236.35
704.00	231.47
705.00	222.33
706.00	216.21
707.00	288.09
708.00	239.39
709.00	219.55
710.00	213.15
711.00	213.94
712.00	217.80
713.00	212.85
714.00	209.73
715.00	224.78
716.00	215.65
717.00	210.35
718.00	210.63
719.00	207.87
720.00	211.45
721.00	213.81
722.00	214.42
723.00	212.35
724.00	213.53
725.00	230.70
726.00	214.25
727.00	215.36
728.00	233.90
729.00	218.60
730.00	216.67
731.00	209.78
732.00	211.33
733.00	212.82
734.00	210.71
735.00	215.87
736.00	224.95
737.00	232.41
738.00	256.56
739.00	307.97
740.00	243.93
741.00	220.92
742.00	218.05
743.00	210.94
744.00	214.90
745.00	218.57
746.00	208.52
747.00	207.22
748.00	208.94
749.00	208.99
750.00	249.60
751.00	487.33
752.00	419.83
753.00	283.41
754.00	224.78
755.00	211.07
756.00	208.18
757.00	209.51
758.00	214.64
759.00	219.06
760.00	207.16
761.00	208.24
762.00	211.94
763.00	239.51
764.00	703.39
765.00	421.99
766.00	277.12
767.00	219.67
768.00	206.92
769.00	207.29
770.00	208.08
771.00	206.08
772.00	214.64
773.00	314.56
774.00	248.47
775.00	222.32
776.00	206.95
777.00	213.53
778.00	267.00
779.00	234.70
780.00	216.58
781.00	206.15
782.00	210.03
783.00	205.95
784.00	212.00
785.00	207.06
786.00	211.53
787.00	212.71
788.00	211.78
789.00	214.98
790.00	216.04
791.00	211.96
792.00	213.80
793.00	213.48
794.00	210.28
795.00	286.06
796.00	295.49
797.00	234.01
798.00	219.55
799.00	208.50
800.00	205.50
801.00	277.08
802.00	371.94
803.00	285.94
804.00	231.28
805.00	216.67
806.00	212.22
807.00	205.97
808.00	212.22
809.00	212.98
810.00	220.37
811.00	358.82
812.00	1346.96
813.00	848.14
814.00	407.41
815.00	288.92
816.00	214.50
817.00	210.19
818.00	209.16
819.00	205.88
820.00	205.04
821.00	201.16
822.00	201.82
823.00	204.86
824.00	208.81
825.00	215.34
826.00	209.74
827.00	255.32
828.00	235.76
829.00	212.34
830.00	207.57
831.00	205.38
832.00	205.92
833.00	205.72
834.00	210.22
835.00	207.45
836.00	205.12
837.00	205.80
838.00	206.32
839.00	204.06
840.00	207.97
841.00	243.81
842.00	269.48
843.00	368.67
844.00	288.80
845.00	237.79
846.00	223.07
847.00	210.57
848.00	206.95
849.00	207.77
850.00	208.85
851.00	201.77
852.00	206.86
853.00	246.54
854.00	216.20
855.00	210.85
856.00	213.96
857.00	209.16
858.00	208.25
859.00	206.10
860.00	200.24
861.00	208.33
862.00	206.84
863.00	205.21
864.00	207.87
865.00	204.89
866.00	200.77
867.00	205.82
868.00	212.99
869.00	205.25
870.00	208.89
871.00	206.22
872.00	206.07
873.00	205.90
874.00	205.90
875.00	201.98
876.00	201.98
877.00	206.80
878.00	205.17
879.00	206.83
880.00	203.80
881.00	202.49
882.00	203.11
883.00	206.90
884.00	197.99
885.00	201.42
886.00	206.24
887.00	207.20
888.00	204.74
889.00	203.30
890.00	206.09
891.00	208.14
892.00	201.88
893.00	204.85
894.00	204.08
895.00	207.97
896.00	205.32
897.00	201.70
898.00	203.01
899.00	199.78
900.00	209.20
901.00	201.36
902.00	200.78
903.00	208.62
904.00	204.58
905.00	204.05
906.00	208.66
907.00	205.27
908.00	204.44
909.00	204.45
910.00	198.69
911.00	209.98
912.00	214.04
913.00	279.63
914.00	244.79
915.00	227.39
916.00	219.28
917.00	214.56
918.00	206.47
919.00	207.30
920.00	203.93
921.00	205.10
922.00	205.89
923.00	216.78
924.00	212.94
925.00	212.95
926.00	210.99
927.00	211.60
928.00	200.15
929.00	203.70
930.00	206.17
931.00	203.10
932.00	203.30
933.00	204.79
934.00	204.73
935.00	203.51
936.00	204.34
937.00	203.00
938.00	203.96
939.00	201.59
940.00	206.44
941.00	205.41
942.00	203.95
943.00	205.19
944.00	197.75
945.00	208.31
946.00	201.14
947.00	198.79
948.00	206.25
949.00	205.95
950.00	203.44
951.00	201.33
952.00	206.98
953.00	204.26
954.00	212.42
955.00	201.39
956.00	203.92
957.00	206.59
958.00	204.46
959.00	206.01
960.00	204.16
961.00	206.34
962.00	202.67
963.00	205.24
964.00	206.28
965.00	200.80
966.00	204.02
967.00	205.96
968.00	208.01
969.00	206.61
970.00	204.93
971.00	205.23
972.00	207.80
973.00	207.11
974.00	202.65
975.00	208.59
976.00	203.92
977.00	200.92
978.00	202.83
979.00	204.02
980.00	201.15
981.00	203.96
982.00	205.08
983.00	204.89
984.00	204.17
985.00	205.89
986.00	206.81
987.00	201.84
988.00	207.18
989.00	207.40
990.00	198.19
991.00	203.90
992.00	204.75
993.00	202.78
994.00	203.88
995.00	203.19
996.00	199.59
997.00	206.97
998.00	207.84
999.00	200.88
1000.00	203.16
>>>>>End Processed Spectral Data<<<<<
