SpectraSuite Data File
++++++++++++++++++++++++++++++++++++
Date: Tue Oct 18 15:12:05 CDT 2011
User: Helimak
Dark Spectrum Present: No
Reference Spectrum Present: No
Number of Sampled Component Spectra: 1
Spectrometers: USB2G37154
Integration Time (usec): 200000 (USB2G37154)
Spectra Averaged: 1 (USB2G37154)
Boxcar Smoothing: 0 (USB2G37154)
Correct for Electrical Dark: No (USB2G37154)
Strobe/Lamp Enabled: No (USB2G37154)
Correct for Detector Non-linearity: No (USB2G37154)
Correct for Stray Light: No (USB2G37154)
Number of Pixels in Processed Spectrum: 651
>>>>>Begin Processed Spectral Data<<<<<
350.00	204.41
351.00	207.95
352.00	207.74
353.00	207.15
354.00	205.89
355.00	208.02
356.00	212.74
357.00	207.04
358.00	214.48
359.00	210.96
360.00	212.39
361.00	209.48
362.00	216.37
363.00	213.48
364.00	216.88
365.00	213.81
366.00	217.84
367.00	215.89
368.00	217.01
369.00	216.98
370.00	216.03
371.00	218.62
372.00	218.82
373.00	221.01
374.00	219.68
375.00	223.24
376.00	223.49
377.00	225.21
378.00	232.77
379.00	227.98
380.00	229.95
381.00	224.71
382.00	236.10
383.00	240.76
384.00	240.73
385.00	237.54
386.00	245.01
387.00	238.35
388.00	241.67
389.00	241.70
390.00	244.41
391.00	246.34
392.00	245.77
393.00	247.00
394.00	253.13
395.00	254.77
396.00	254.96
397.00	258.37
398.00	262.60
399.00	267.32
400.00	275.41
401.00	275.71
402.00	288.16
403.00	290.14
404.00	297.54
405.00	295.34
406.00	293.01
407.00	299.60
408.00	304.81
409.00	307.89
410.00	310.49
411.00	305.45
412.00	307.52
413.00	313.72
414.00	306.35
415.00	312.80
416.00	318.70
417.00	321.21
418.00	320.45
419.00	327.59
420.00	338.09
421.00	339.20
422.00	348.16
423.00	356.16
424.00	367.29
425.00	371.14
426.00	383.21
427.00	399.66
428.00	398.91
429.00	403.80
430.00	422.40
431.00	408.62
432.00	422.72
433.00	425.15
434.00	422.29
435.00	461.88
436.00	448.10
437.00	437.25
438.00	425.02
439.00	426.40
440.00	430.56
441.00	437.27
442.00	432.86
443.00	442.95
444.00	456.45
445.00	459.79
446.00	471.69
447.00	469.38
448.00	491.35
449.00	506.80
450.00	512.99
451.00	535.86
452.00	544.11
453.00	575.12
454.00	577.80
455.00	593.43
456.00	610.09
457.00	621.58
458.00	635.56
459.00	642.37
460.00	637.28
461.00	638.02
462.00	654.47
463.00	636.91
464.00	639.09
465.00	660.25
466.00	662.30
467.00	657.83
468.00	658.24
469.00	662.85
470.00	674.37
471.00	675.85
472.00	686.94
473.00	687.45
474.00	717.26
475.00	717.93
476.00	736.86
477.00	774.61
478.00	774.11
479.00	807.14
480.00	844.07
481.00	872.54
482.00	911.94
483.00	938.61
484.00	976.25
485.00	1024.12
486.00	1058.52
487.00	1110.93
488.00	1143.05
489.00	1195.50
490.00	1213.71
491.00	1271.32
492.00	1286.36
493.00	1305.84
494.00	1326.48
495.00	1341.43
496.00	1375.47
497.00	1383.54
498.00	1378.48
499.00	1395.69
500.00	1383.92
501.00	1395.48
502.00	1399.02
503.00	1391.39
504.00	1394.77
505.00	1395.18
506.00	1428.08
507.00	1437.03
508.00	1446.51
509.00	1425.64
510.00	1445.04
511.00	1472.93
512.00	1489.29
513.00	1496.62
514.00	1499.84
515.00	1533.29
516.00	1527.30
517.00	1558.93
518.00	1577.27
519.00	1616.86
520.00	1641.66
521.00	1658.19
522.00	1703.31
523.00	1733.85
524.00	1755.23
525.00	1805.19
526.00	1850.23
527.00	1910.00
528.00	1972.36
529.00	2014.82
530.00	2044.93
531.00	2081.57
532.00	2121.90
533.00	2154.42
534.00	2193.80
535.00	2217.15
536.00	2281.02
537.00	2272.83
538.00	2318.17
539.00	2335.03
540.00	2339.79
541.00	2397.27
542.00	2471.79
543.00	2512.51
544.00	2467.34
545.00	2447.14
546.00	2474.94
547.00	2399.95
548.00	2375.84
549.00	2394.74
550.00	2383.38
551.00	2353.89
552.00	2345.73
553.00	2385.16
554.00	2408.35
555.00	2374.56
556.00	2376.87
557.00	2397.35
558.00	2391.07
559.00	2401.37
560.00	2431.13
561.00	2445.01
562.00	2486.43
563.00	2484.63
564.00	2510.09
565.00	2581.92
566.00	2561.34
567.00	2599.74
568.00	2623.61
569.00	2633.50
570.00	2648.45
571.00	2730.94
572.00	2736.49
573.00	2770.36
574.00	2811.74
575.00	2834.89
576.00	2856.65
577.00	2870.42
578.00	2919.34
579.00	2962.29
580.00	3014.35
581.00	3003.88
582.00	3035.72
583.00	3074.04
584.00	3134.74
585.00	3035.15
586.00	3074.65
587.00	3080.60
588.00	3132.35
589.00	3090.26
590.00	3087.48
591.00	3049.61
592.00	3007.16
593.00	3044.83
594.00	3050.11
595.00	3019.07
596.00	3045.46
597.00	3025.07
598.00	3024.55
599.00	3011.99
600.00	3031.15
601.00	3021.26
602.00	2970.86
603.00	3023.00
604.00	3018.55
605.00	3002.08
606.00	3039.68
607.00	2976.98
608.00	3014.47
609.00	3019.92
610.00	2981.83
611.00	3147.26
612.00	3134.01
613.00	3091.69
614.00	3068.49
615.00	3066.18
616.00	3079.95
617.00	3075.82
618.00	3103.94
619.00	3122.08
620.00	3106.26
621.00	3144.69
622.00	3147.42
623.00	3112.99
624.00	3164.84
625.00	3159.20
626.00	3181.80
627.00	3227.15
628.00	3225.70
629.00	3229.10
630.00	3274.94
631.00	3310.66
632.00	3297.92
633.00	3282.69
634.00	3296.97
635.00	3282.07
636.00	3272.65
637.00	3253.47
638.00	3290.39
639.00	3255.77
640.00	3273.39
641.00	3258.01
642.00	3220.41
643.00	3197.41
644.00	3197.01
645.00	3208.40
646.00	3185.61
647.00	3130.54
648.00	3135.56
649.00	3114.41
650.00	3097.49
651.00	3095.79
652.00	3045.58
653.00	3017.30
654.00	3012.55
655.00	3016.95
656.00	2995.63
657.00	2942.25
658.00	2950.99
659.00	2931.83
660.00	2927.75
661.00	2894.55
662.00	2893.19
663.00	2879.02
664.00	2847.93
665.00	2807.31
666.00	2828.74
667.00	2802.68
668.00	2805.22
669.00	2791.24
670.00	2777.09
671.00	2726.86
672.00	2745.09
673.00	2751.09
674.00	2780.73
675.00	2740.09
676.00	2766.24
677.00	2750.67
678.00	2743.52
679.00	2735.31
680.00	2720.90
681.00	2739.39
682.00	2731.75
683.00	2703.27
684.00	2711.73
685.00	2730.93
686.00	2734.81
687.00	2744.76
688.00	2738.52
689.00	2752.56
690.00	2714.20
691.00	2726.54
692.00	2728.63
693.00	2766.68
694.00	2767.61
695.00	2758.62
696.00	2724.00
697.00	2739.57
698.00	2768.41
699.00	2758.24
700.00	2762.45
701.00	2805.74
702.00	2826.46
703.00	2811.38
704.00	2807.26
705.00	2811.37
706.00	2758.69
707.00	2774.95
708.00	2736.56
709.00	2755.50
710.00	2718.57
711.00	2698.05
712.00	2671.58
713.00	2669.20
714.00	2681.95
715.00	2637.81
716.00	2627.01
717.00	2584.99
718.00	2577.21
719.00	2517.83
720.00	2500.37
721.00	2489.86
722.00	2424.31
723.00	2391.07
724.00	2380.51
725.00	2383.48
726.00	2339.93
727.00	2302.91
728.00	2290.00
729.00	2287.01
730.00	2277.02
731.00	2267.56
732.00	2249.86
733.00	2249.30
734.00	2193.21
735.00	2215.94
736.00	2187.34
737.00	2182.48
738.00	2175.16
739.00	2149.56
740.00	2156.37
741.00	2110.07
742.00	2081.91
743.00	2063.42
744.00	2056.04
745.00	2052.89
746.00	2040.77
747.00	2034.26
748.00	2022.64
749.00	1998.72
750.00	1947.43
751.00	1969.46
752.00	1959.21
753.00	1924.78
754.00	1913.05
755.00	1903.90
756.00	1898.75
757.00	1888.76
758.00	1907.38
759.00	1870.82
760.00	1857.53
761.00	1875.87
762.00	1851.37
763.00	1844.49
764.00	1833.23
765.00	1799.61
766.00	1826.30
767.00	1809.19
768.00	1803.25
769.00	1816.69
770.00	1773.44
771.00	1800.28
772.00	1782.81
773.00	1787.23
774.00	1759.57
775.00	1733.63
776.00	1717.43
777.00	1725.61
778.00	1709.93
779.00	1725.49
780.00	1686.19
781.00	1674.84
782.00	1656.75
783.00	1672.43
784.00	1665.45
785.00	1672.23
786.00	1689.78
787.00	1711.15
788.00	1710.72
789.00	1698.06
790.00	1710.70
791.00	1749.28
792.00	1768.23
793.00	1789.17
794.00	1781.36
795.00	1798.74
796.00	1788.34
797.00	1814.55
798.00	1823.11
799.00	1793.02
800.00	1787.83
801.00	1797.14
802.00	1785.80
803.00	1801.39
804.00	1766.50
805.00	1748.62
806.00	1757.56
807.00	1763.67
808.00	1755.75
809.00	1713.45
810.00	1713.34
811.00	1720.17
812.00	1721.09
813.00	1706.96
814.00	1665.10
815.00	1642.80
816.00	1641.32
817.00	1601.21
818.00	1583.52
819.00	1577.13
820.00	1539.30
821.00	1555.41
822.00	1527.75
823.00	1521.80
824.00	1510.11
825.00	1497.62
826.00	1483.35
827.00	1440.45
828.00	1427.31
829.00	1366.00
830.00	1374.32
831.00	1358.13
832.00	1360.35
833.00	1354.54
834.00	1318.83
835.00	1329.82
836.00	1310.98
837.00	1282.65
838.00	1271.24
839.00	1258.04
840.00	1236.58
841.00	1211.12
842.00	1210.05
843.00	1221.30
844.00	1206.13
845.00	1205.87
846.00	1194.05
847.00	1148.98
848.00	1127.45
849.00	1135.27
850.00	1134.47
851.00	1088.26
852.00	1081.60
853.00	1072.08
854.00	1075.65
855.00	1069.63
856.00	1053.27
857.00	1054.56
858.00	1036.37
859.00	1047.81
860.00	1032.10
861.00	1016.77
862.00	997.21
863.00	1004.76
864.00	988.94
865.00	985.37
866.00	964.40
867.00	952.48
868.00	941.00
869.00	929.34
870.00	900.76
871.00	904.70
872.00	921.05
873.00	888.53
874.00	864.11
875.00	851.65
876.00	861.85
877.00	851.46
878.00	829.66
879.00	807.49
880.00	811.78
881.00	806.09
882.00	796.33
883.00	777.50
884.00	778.01
885.00	760.50
886.00	755.05
887.00	735.33
888.00	743.87
889.00	763.35
890.00	745.73
891.00	745.41
892.00	756.59
893.00	735.71
894.00	734.37
895.00	733.05
896.00	729.43
897.00	737.17
898.00	736.57
899.00	726.06
900.00	729.39
901.00	738.62
902.00	716.56
903.00	725.87
904.00	730.68
905.00	712.51
906.00	710.36
907.00	717.15
908.00	718.02
909.00	709.90
910.00	718.80
911.00	704.36
912.00	712.31
913.00	708.20
914.00	698.47
915.00	686.02
916.00	668.24
917.00	678.33
918.00	668.30
919.00	665.61
920.00	662.55
921.00	655.61
922.00	652.28
923.00	634.51
924.00	636.21
925.00	610.12
926.00	597.94
927.00	576.07
928.00	554.75
929.00	543.23
930.00	534.37
931.00	524.90
932.00	506.79
933.00	512.74
934.00	508.68
935.00	484.19
936.00	458.26
937.00	432.76
938.00	409.11
939.00	384.65
940.00	355.40
941.00	345.35
942.00	334.01
943.00	318.36
944.00	316.45
945.00	318.24
946.00	309.97
947.00	311.05
948.00	306.97
949.00	309.94
950.00	313.01
951.00	308.77
952.00	304.87
953.00	309.87
954.00	303.02
955.00	311.44
956.00	307.94
957.00	309.44
958.00	301.76
959.00	303.89
960.00	310.17
961.00	295.12
962.00	300.33
963.00	296.34
964.00	299.95
965.00	292.14
966.00	290.13
967.00	293.18
968.00	280.02
969.00	276.96
970.00	273.74
971.00	278.83
972.00	277.59
973.00	273.97
974.00	277.40
975.00	269.66
976.00	270.16
977.00	269.09
978.00	257.08
979.00	254.89
980.00	256.14
981.00	253.11
982.00	253.37
983.00	250.40
984.00	257.20
985.00	252.71
986.00	246.59
987.00	244.33
988.00	243.89
989.00	244.54
990.00	238.24
991.00	237.05
992.00	235.13
993.00	235.86
994.00	230.98
995.00	231.82
996.00	227.79
997.00	214.38
998.00	226.41
999.00	228.92
1000.00	222.80
>>>>>End Processed Spectral Data<<<<<
